%OpenBCI Raw EEG Data
%
%Sample Rate = 250.0 Hz
%First Column = SampleIndex
%Last Column = Timestamp 
%Other Columns = EEG data in microvolts followed by Accel Data (in G) interleaved with Aux Data
0, 0.00, 0.00, 0.00, 0.00, 0.00, 0.00, 0.00, 0.00, -13.34, -10.19, -13.88, -12.20, -9.54, -12.27, -11.87, -10.08, -0.052, 0.482, 0.070, 14:57:38.340
1, -29.33, -34.29, -19.33, -28.19, -25.59, -16.32, -26.31, -17.34, -13.34, -10.19, -13.88, -12.20, -9.54, -12.27, -11.87, -10.08, 0.000, 0.000, 0.000, 14:57:38.347
2, -29.33, -34.29, -19.33, -28.19, -25.59, -16.32, -26.31, -17.34, -26.64, -20.59, -27.72, -24.36, -19.22, -24.79, -23.63, -20.52, 0.000, 0.000, 0.000, 14:57:38.348
3, -29.39, -34.33, -19.07, -28.19, -25.68, -16.41, -26.40, -17.48, -26.64, -20.59, -27.72, -24.36, -19.22, -24.79, -23.63, -20.52, 0.000, 0.000, 0.000, 14:57:38.355
4, -29.39, -34.33, -19.07, -28.19, -25.68, -16.41, -26.40, -17.48, -26.40, -20.50, -27.65, -24.18, -19.07, -24.88, -23.60, -20.36, 0.000, 0.000, 0.000, 14:57:38.355
5, -29.33, -34.22, -19.36, -28.19, -25.75, -16.52, -26.29, -17.52, -26.40, -20.50, -27.65, -24.18, -19.07, -24.88, -23.60, -20.36, 0.000, 0.000, 0.000, 14:57:38.361
6, -29.33, -34.22, -19.36, -28.19, -25.75, -16.52, -26.29, -17.52, -26.62, -20.38, -27.69, -24.25, -19.07, -24.94, -23.96, -20.52, 0.000, 0.000, 0.000, 14:57:38.361
7, -29.39, -34.40, -19.33, -28.21, -25.57, -16.21, -26.40, -17.43, -26.62, -20.38, -27.69, -24.25, -19.07, -24.94, -23.96, -20.52, -0.120, 0.972, 0.144, 14:57:38.369
8, -29.39, -34.40, -19.33, -28.21, -25.57, -16.21, -26.40, -17.43, -26.71, -20.43, -27.85, -24.32, -18.98, -24.59, -23.72, -20.47, 0.000, 0.000, 0.000, 14:57:38.369
9, -29.26, -34.44, -19.29, -28.12, -25.37, -16.34, -26.31, -17.41, -26.71, -20.43, -27.85, -24.32, -18.98, -24.59, -23.72, -20.47, 0.000, 0.000, 0.000, 14:57:38.377
10, -29.26, -34.44, -19.29, -28.12, -25.37, -16.34, -26.31, -17.41, -26.51, -20.59, -27.65, -24.45, -18.86, -24.61, -23.92, -20.38, 0.000, 0.000, 0.000, 14:57:38.377
11, -29.33, -34.38, -19.36, -28.10, -25.68, -16.34, -26.22, -17.48, -26.51, -20.59, -27.65, -24.45, -18.86, -24.61, -23.92, -20.38, 0.000, 0.000, 0.000, 14:57:38.386
12, -29.33, -34.38, -19.36, -28.10, -25.68, -16.34, -26.22, -17.48, -26.60, -20.34, -27.63, -24.43, -18.91, -24.77, -23.92, -20.59, 0.000, 0.000, 0.000, 14:57:38.386
13, -29.46, -34.33, -19.38, -28.25, -25.62, -16.14, -26.53, -17.50, -26.60, -20.34, -27.63, -24.43, -18.91, -24.77, -23.92, -20.59, 0.000, 0.000, 0.000, 14:57:38.391
14, -29.46, -34.33, -19.38, -28.25, -25.62, -16.14, -26.53, -17.50, -26.69, -20.63, -27.67, -24.39, -19.09, -24.72, -23.76, -20.61, 0.000, 0.000, 0.000, 14:57:38.392
15, -29.33, -34.24, -19.51, -28.16, -25.53, -16.45, -26.49, -17.39, -26.69, -20.63, -27.67, -24.39, -19.09, -24.72, -23.76, -20.61, 0.000, 0.000, 0.000, 14:57:38.399
16, -29.33, -34.24, -19.51, -28.16, -25.53, -16.45, -26.49, -17.39, -26.69, -20.54, -27.74, -24.50, -19.04, -24.92, -23.51, -20.47, 0.000, 0.000, 0.000, 14:57:38.407
17, -29.33, -34.38, -19.60, -28.14, -25.70, -16.38, -26.51, -17.28, -26.69, -20.54, -27.74, -24.50, -19.04, -24.92, -23.51, -20.47, -0.112, 0.976, 0.142, 14:57:38.407
18, -29.33, -34.38, -19.60, -28.14, -25.70, -16.38, -26.51, -17.28, -26.62, -20.50, -27.65, -24.32, -19.02, -24.81, -23.60, -20.59, 0.000, 0.000, 0.000, 14:57:38.415
19, -29.35, -34.31, -19.49, -28.21, -25.64, -16.61, -26.29, -17.30, -26.62, -20.50, -27.65, -24.32, -19.02, -24.81, -23.60, -20.59, 0.000, 0.000, 0.000, 14:57:38.416
20, -29.35, -34.31, -19.49, -28.21, -25.64, -16.61, -26.29, -17.30, -26.87, -20.32, -27.87, -24.32, -18.98, -24.74, -23.83, -20.43, 0.000, 0.000, 0.000, 14:57:38.423
21, -29.30, -34.33, -19.49, -28.12, -25.37, -16.52, -26.51, -17.39, -26.87, -20.32, -27.87, -24.32, -18.98, -24.74, -23.83, -20.43, 0.000, 0.000, 0.000, 14:57:38.423
22, -29.30, -34.33, -19.49, -28.12, -25.37, -16.52, -26.51, -17.39, -26.71, -20.34, -27.76, -24.39, -19.00, -25.06, -23.74, -20.41, 0.000, 0.000, 0.000, 14:57:38.429
23, -29.21, -34.31, -19.36, -28.19, -25.26, -16.56, -26.40, -17.37, -26.71, -20.34, -27.76, -24.39, -19.00, -25.06, -23.74, -20.41, 0.000, 0.000, 0.000, 14:57:38.430
24, -29.21, -34.31, -19.36, -28.19, -25.26, -16.56, -26.40, -17.37, -26.84, -20.56, -27.85, -24.39, -19.09, -24.70, -23.89, -20.38, 0.000, 0.000, 0.000, 14:57:38.438
25, -29.33, -34.22, -19.40, -28.25, -25.66, -16.45, -26.40, -17.41, -26.84, -20.56, -27.85, -24.39, -19.09, -24.70, -23.89, -20.38, 0.000, 0.000, 0.000, 14:57:38.438
26, -29.33, -34.22, -19.40, -28.25, -25.66, -16.45, -26.40, -17.41, -26.80, -20.45, -27.78, -24.36, -19.18, -24.72, -23.74, -20.41, 0.000, 0.000, 0.000, 14:57:38.445
27, -29.39, -34.33, -19.51, -28.32, -25.55, -16.32, -26.42, -17.46, -26.80, -20.45, -27.78, -24.36, -19.18, -24.72, -23.74, -20.41, -0.114, 0.980, 0.142, 14:57:38.445
28, -29.39, -34.33, -19.51, -28.32, -25.55, -16.32, -26.42, -17.46, -26.44, -20.47, -27.78, -24.32, -19.09, -24.83, -23.58, -20.32, 0.000, 0.000, 0.000, 14:57:38.460
29, -29.41, -34.33, -19.56, -28.21, -25.57, -16.41, -26.46, -17.34, -26.44, -20.47, -27.78, -24.32, -19.09, -24.83, -23.58, -20.32, 0.000, 0.000, 0.000, 14:57:38.460
30, -29.41, -34.33, -19.56, -28.21, -25.57, -16.41, -26.46, -17.34, -26.60, -20.38, -27.72, -24.36, -19.09, -24.50, -23.83, -20.50, 0.000, 0.000, 0.000, 14:57:38.483
31, -29.12, -34.42, -19.78, -28.03, -25.70, -16.43, -26.22, -17.52, -26.60, -20.38, -27.72, -24.36, -19.09, -24.50, -23.83, -20.50, 0.000, 0.000, 0.000, 14:57:38.483
32, -29.12, -34.42, -19.78, -28.03, -25.70, -16.43, -26.22, -17.52, -26.58, -20.50, -27.51, -24.41, -19.04, -24.79, -23.69, -20.56, 0.000, 0.000, 0.000, 14:57:38.490
33, -29.35, -34.22, -19.29, -28.07, -25.55, -16.54, -26.20, -17.68, -26.58, -20.50, -27.51, -24.41, -19.04, -24.79, -23.69, -20.56, 0.000, 0.000, 0.000, 14:57:38.495
34, -29.35, -34.22, -19.29, -28.07, -25.55, -16.54, -26.20, -17.68, -26.53, -20.52, -27.83, -24.16, -18.89, -24.74, -23.72, -20.50, 0.000, 0.000, 0.000, 14:57:38.495
35, -29.24, -34.33, -19.22, -28.25, -25.68, -16.52, -26.53, -17.41, -26.53, -20.52, -27.83, -24.16, -18.89, -24.74, -23.72, -20.50, 0.000, 0.000, 0.000, 14:57:38.502
36, -29.24, -34.33, -19.22, -28.25, -25.68, -16.52, -26.53, -17.41, -26.53, -20.56, -27.78, -24.34, -19.02, -24.70, -23.80, -20.50, 0.000, 0.000, 0.000, 14:57:38.502
37, -29.26, -34.11, -19.38, -28.14, -25.62, -16.36, -26.44, -17.48, -26.53, -20.56, -27.78, -24.34, -19.02, -24.70, -23.80, -20.50, -0.116, 0.976, 0.146, 14:57:38.507
38, -29.26, -34.11, -19.38, -28.14, -25.62, -16.36, -26.44, -17.48, -26.71, -20.56, -27.72, -24.39, -19.02, -24.56, -23.80, -20.23, 0.000, 0.000, 0.000, 14:57:38.507
39, -29.28, -34.29, -19.47, -28.07, -25.46, -16.29, -26.49, -17.52, -26.71, -20.56, -27.72, -24.39, -19.02, -24.56, -23.80, -20.23, 0.000, 0.000, 0.000, 14:57:38.514
40, -29.28, -34.29, -19.47, -28.07, -25.46, -16.29, -26.49, -17.52, -26.53, -20.45, -27.81, -24.36, -18.91, -24.68, -23.85, -20.47, 0.000, 0.000, 0.000, 14:57:38.514
41, -29.17, -34.40, -19.36, -28.12, -25.59, -16.43, -26.38, -17.46, -26.53, -20.45, -27.81, -24.36, -18.91, -24.68, -23.85, -20.47, 0.000, 0.000, 0.000, 14:57:38.519
42, -29.17, -34.40, -19.36, -28.12, -25.59, -16.43, -26.38, -17.46, -26.58, -20.65, -27.72, -24.34, -18.84, -24.68, -23.92, -20.14, 0.000, 0.000, 0.000, 14:57:38.519
43, -29.24, -34.44, -19.47, -27.94, -25.44, -16.43, -26.24, -17.50, -26.58, -20.65, -27.72, -24.34, -18.84, -24.68, -23.92, -20.14, 0.000, 0.000, 0.000, 14:57:38.526
44, -29.24, -34.44, -19.47, -27.94, -25.44, -16.43, -26.24, -17.50, -26.60, -20.59, -27.74, -24.21, -19.18, -24.79, -23.58, -20.68, 0.000, 0.000, 0.000, 14:57:38.526
45, -29.24, -34.38, -19.40, -28.14, -25.59, -16.41, -26.40, -17.66, -26.60, -20.59, -27.74, -24.21, -19.18, -24.79, -23.58, -20.68, 0.000, 0.000, 0.000, 14:57:38.533
46, -29.24, -34.38, -19.40, -28.14, -25.59, -16.41, -26.40, -17.66, -26.80, -20.47, -27.89, -24.27, -18.89, -24.86, -23.83, -20.63, 0.000, 0.000, 0.000, 14:57:38.533
47, -29.59, -34.22, -19.29, -27.98, -25.53, -16.36, -26.44, -17.41, -26.80, -20.47, -27.89, -24.27, -18.89, -24.86, -23.83, -20.63, -0.116, 0.972, 0.150, 14:57:38.538
48, -29.59, -34.22, -19.29, -27.98, -25.53, -16.36, -26.44, -17.41, -26.89, -20.56, -27.69, -24.36, -19.09, -24.92, -23.76, -20.45, 0.000, 0.000, 0.000, 14:57:38.545
49, -29.21, -34.33, -19.36, -28.39, -25.64, -16.45, -26.51, -17.32, -26.89, -20.56, -27.69, -24.36, -19.09, -24.92, -23.76, -20.45, 0.000, 0.000, 0.000, 14:57:38.545
50, -29.21, -34.33, -19.36, -28.39, -25.64, -16.45, -26.51, -17.32, -26.67, -20.61, -27.78, -24.41, -18.95, -24.86, -23.72, -20.45, 0.000, 0.000, 0.000, 14:57:38.551
51, -29.19, -34.42, -19.69, -28.05, -25.70, -16.32, -26.22, -17.50, -26.67, -20.61, -27.78, -24.41, -18.95, -24.86, -23.72, -20.45, 0.000, 0.000, 0.000, 14:57:38.552
52, -29.19, -34.42, -19.69, -28.05, -25.70, -16.32, -26.22, -17.50, -26.62, -20.56, -27.76, -24.43, -18.91, -24.77, -23.85, -20.18, 0.000, 0.000, 0.000, 14:57:38.558
53, -29.35, -34.51, -19.36, -28.14, -25.84, -16.50, -26.35, -17.43, -26.62, -20.56, -27.76, -24.43, -18.91, -24.77, -23.85, -20.18, 0.000, 0.000, 0.000, 14:57:38.558
54, -29.35, -34.51, -19.36, -28.14, -25.84, -16.50, -26.35, -17.43, -26.78, -20.41, -27.69, -24.41, -19.02, -24.83, -23.36, -20.47, 0.000, 0.000, 0.000, 14:57:38.565
55, -29.35, -34.51, -19.62, -28.03, -25.62, -16.34, -26.60, -17.57, -26.78, -20.41, -27.69, -24.41, -19.02, -24.83, -23.36, -20.47, 0.000, 0.000, 0.000, 14:57:38.565
56, -29.35, -34.51, -19.62, -28.03, -25.62, -16.34, -26.60, -17.57, -26.58, -20.56, -27.81, -24.48, -18.95, -24.56, -23.76, -20.59, 0.000, 0.000, 0.000, 14:57:38.570
57, -29.26, -34.22, -19.22, -28.30, -25.48, -16.38, -26.55, -17.48, -26.58, -20.56, -27.81, -24.48, -18.95, -24.56, -23.76, -20.59, -0.112, 0.964, 0.152, 14:57:38.570
58, -29.26, -34.22, -19.22, -28.30, -25.48, -16.38, -26.55, -17.48, -26.40, -20.38, -27.87, -24.56, -18.78, -24.65, -23.98, -20.81, 0.000, 0.000, 0.000, 14:57:38.577
59, -29.30, -34.29, -19.31, -28.12, -25.62, -16.50, -26.17, -17.41, -26.40, -20.38, -27.87, -24.56, -18.78, -24.65, -23.98, -20.81, 0.000, 0.000, 0.000, 14:57:38.577
60, -29.30, -34.29, -19.31, -28.12, -25.62, -16.50, -26.17, -17.41, -26.62, -20.43, -28.03, -24.34, -18.98, -24.56, -23.78, -20.56, 0.000, 0.000, 0.000, 14:57:38.583
61, -29.08, -34.27, -19.42, -28.23, -25.75, -16.16, -26.26, -17.39, -26.62, -20.43, -28.03, -24.34, -18.98, -24.56, -23.78, -20.56, 0.000, 0.000, 0.000, 14:57:38.583
62, -29.08, -34.27, -19.42, -28.23, -25.75, -16.16, -26.26, -17.39, -26.58, -20.43, -27.81, -24.34, -19.04, -24.72, -23.74, -20.56, 0.000, 0.000, 0.000, 14:57:38.589
63, -29.19, -34.49, -19.27, -28.14, -25.57, -16.47, -26.42, -17.30, -26.58, -20.43, -27.81, -24.34, -19.04, -24.72, -23.74, -20.56, 0.000, 0.000, 0.000, 14:57:38.589
64, -29.19, -34.49, -19.27, -28.14, -25.57, -16.47, -26.42, -17.30, -26.55, -20.45, -27.89, -24.65, -19.02, -25.03, -23.76, -20.38, 0.000, 0.000, 0.000, 14:57:38.596
65, -29.39, -34.42, -19.22, -28.03, -25.48, -16.56, -26.22, -17.48, -26.55, -20.45, -27.89, -24.65, -19.02, -25.03, -23.76, -20.38, 0.000, 0.000, 0.000, 14:57:38.602
66, -29.39, -34.42, -19.22, -28.03, -25.48, -16.56, -26.22, -17.48, -26.51, -20.38, -27.69, -24.27, -18.95, -24.34, -23.51, -20.14, 0.000, 0.000, 0.000, 14:57:38.603
67, -29.35, -34.56, -19.40, -28.07, -25.68, -16.43, -26.44, -17.59, -26.51, -20.38, -27.69, -24.27, -18.95, -24.34, -23.51, -20.14, -0.110, 0.968, 0.148, 14:57:38.610
68, -29.35, -34.56, -19.40, -28.07, -25.68, -16.43, -26.44, -17.59, -26.71, -20.47, -27.72, -24.25, -18.95, -24.61, -23.56, -20.52, 0.000, 0.000, 0.000, 14:57:38.610
69, -29.48, -34.31, -19.18, -28.23, -25.73, -16.32, -26.55, -17.30, -26.71, -20.47, -27.72, -24.25, -18.95, -24.61, -23.56, -20.52, 0.000, 0.000, 0.000, 14:57:38.617
70, -29.48, -34.31, -19.18, -28.23, -25.73, -16.32, -26.55, -17.30, -26.87, -20.47, -27.87, -24.12, -19.02, -25.01, -23.89, -20.54, 0.000, 0.000, 0.000, 14:57:38.618
71, -29.37, -34.40, -19.27, -28.23, -25.70, -16.34, -26.38, -17.52, -26.87, -20.47, -27.87, -24.12, -19.02, -25.01, -23.89, -20.54, 0.000, 0.000, 0.000, 14:57:38.626
72, -29.37, -34.40, -19.27, -28.23, -25.70, -16.34, -26.38, -17.52, -26.49, -20.34, -27.72, -24.25, -18.95, -24.52, -23.92, -20.34, 0.000, 0.000, 0.000, 14:57:38.626
73, -29.44, -34.42, -19.18, -27.92, -25.66, -16.38, -26.58, -17.46, -26.49, -20.34, -27.72, -24.25, -18.95, -24.52, -23.92, -20.34, 0.000, 0.000, 0.000, 14:57:38.636
74, -29.44, -34.42, -19.18, -27.92, -25.66, -16.38, -26.58, -17.46, -26.53, -20.47, -27.47, -24.48, -19.07, -24.41, -23.92, -20.34, 0.000, 0.000, 0.000, 14:57:38.636
75, -29.24, -34.35, -19.33, -28.32, -25.73, -16.45, -26.29, -17.41, -26.53, -20.47, -27.47, -24.48, -19.07, -24.41, -23.92, -20.34, 0.000, 0.000, 0.000, 14:57:38.643
76, -29.24, -34.35, -19.33, -28.32, -25.73, -16.45, -26.29, -17.41, -26.82, -20.34, -27.76, -24.25, -19.13, -24.83, -23.85, -20.18, 0.000, 0.000, 0.000, 14:57:38.643
77, -29.28, -34.27, -19.40, -28.23, -25.75, -16.27, -26.35, -17.48, -26.82, -20.34, -27.76, -24.25, -19.13, -24.83, -23.85, -20.18, -0.106, 0.974, 0.148, 14:57:38.649
78, -29.28, -34.27, -19.40, -28.23, -25.75, -16.27, -26.35, -17.48, -26.44, -20.34, -27.81, -24.54, -19.22, -24.72, -23.96, -20.43, 0.000, 0.000, 0.000, 14:57:38.649
79, -29.55, -34.47, -19.45, -27.96, -25.79, -16.32, -26.46, -17.46, -26.44, -20.34, -27.81, -24.54, -19.22, -24.72, -23.96, -20.43, 0.000, 0.000, 0.000, 14:57:38.655
80, -29.55, -34.47, -19.45, -27.96, -25.79, -16.32, -26.46, -17.46, -26.60, -20.61, -27.69, -24.36, -19.04, -24.70, -23.76, -20.25, 0.000, 0.000, 0.000, 14:57:38.663
81, -29.24, -34.33, -19.49, -28.16, -25.70, -16.52, -26.31, -17.43, -26.60, -20.61, -27.69, -24.36, -19.04, -24.70, -23.76, -20.25, 0.000, 0.000, 0.000, 14:57:38.664
82, -29.24, -34.33, -19.49, -28.16, -25.70, -16.52, -26.31, -17.43, -26.58, -20.38, -27.81, -24.36, -19.09, -24.86, -23.78, -20.23, 0.000, 0.000, 0.000, 14:57:38.671
83, -29.24, -34.51, -19.40, -28.07, -25.66, -16.38, -26.53, -17.37, -26.58, -20.38, -27.81, -24.36, -19.09, -24.86, -23.78, -20.23, 0.000, 0.000, 0.000, 14:57:38.671
84, -29.24, -34.51, -19.40, -28.07, -25.66, -16.38, -26.53, -17.37, -26.58, -20.36, -28.05, -24.45, -19.04, -24.79, -23.76, -20.45, 0.000, 0.000, 0.000, 14:57:38.678
85, -29.39, -34.40, -19.51, -27.87, -25.77, -16.29, -26.53, -17.43, -26.58, -20.36, -28.05, -24.45, -19.04, -24.79, -23.76, -20.45, 0.000, 0.000, 0.000, 14:57:38.678
86, -29.39, -34.40, -19.51, -27.87, -25.77, -16.29, -26.53, -17.43, -26.55, -20.50, -27.89, -24.36, -18.80, -24.68, -23.69, -20.74, 0.000, 0.000, 0.000, 14:57:38.687
87, -29.26, -34.27, -19.51, -28.19, -25.70, -16.43, -26.33, -17.39, -26.55, -20.50, -27.89, -24.36, -18.80, -24.68, -23.69, -20.74, -0.106, 0.976, 0.134, 14:57:38.687
88, -29.26, -34.27, -19.51, -28.19, -25.70, -16.43, -26.33, -17.39, -26.71, -20.70, -27.78, -24.30, -18.84, -24.45, -23.69, -20.52, 0.000, 0.000, 0.000, 14:57:38.695
89, -29.37, -34.15, -19.36, -28.03, -25.57, -16.47, -26.64, -17.39, -26.71, -20.70, -27.78, -24.30, -18.84, -24.45, -23.69, -20.52, 0.000, 0.000, 0.000, 14:57:38.695
90, -29.37, -34.15, -19.36, -28.03, -25.57, -16.47, -26.64, -17.39, -26.62, -20.63, -27.72, -24.34, -18.93, -24.63, -23.87, -20.47, 0.000, 0.000, 0.000, 14:57:38.701
91, -29.48, -34.31, -19.36, -28.23, -25.70, -16.38, -26.69, -17.57, -26.62, -20.63, -27.72, -24.34, -18.93, -24.63, -23.87, -20.47, 0.000, 0.000, 0.000, 14:57:38.702
92, -29.48, -34.31, -19.36, -28.23, -25.70, -16.38, -26.69, -17.57, -26.40, -20.52, -27.72, -24.41, -19.11, -24.97, -23.83, -20.45, 0.000, 0.000, 0.000, 14:57:38.711
93, -29.33, -34.60, -19.38, -28.14, -25.77, -16.47, -26.44, -17.46, -26.40, -20.52, -27.72, -24.41, -19.11, -24.97, -23.83, -20.45, 0.000, 0.000, 0.000, 14:57:38.712
94, -29.33, -34.60, -19.38, -28.14, -25.77, -16.47, -26.44, -17.46, -26.69, -20.63, -27.58, -24.39, -19.09, -24.74, -23.56, -20.45, 0.000, 0.000, 0.000, 14:57:38.727
95, -29.33, -34.29, -19.22, -28.07, -25.84, -16.50, -26.46, -17.61, -26.69, -20.63, -27.58, -24.39, -19.09, -24.74, -23.56, -20.45, 0.000, 0.000, 0.000, 14:57:38.737
96, -29.33, -34.29, -19.22, -28.07, -25.84, -16.50, -26.46, -17.61, -26.67, -20.41, -27.83, -24.43, -19.22, -24.74, -23.98, -20.27, 0.000, 0.000, 0.000, 14:57:38.743
97, -29.46, -34.31, -19.40, -28.27, -25.59, -16.32, -26.35, -17.39, -26.67, -20.41, -27.83, -24.43, -19.22, -24.74, -23.98, -20.27, -0.106, 0.972, 0.142, 14:57:38.744
98, -29.46, -34.31, -19.40, -28.27, -25.59, -16.32, -26.35, -17.39, -26.62, -20.41, -27.96, -24.30, -19.02, -24.92, -23.89, -20.38, 0.000, 0.000, 0.000, 14:57:38.750
99, -29.12, -34.38, -19.42, -28.01, -25.66, -16.34, -26.49, -17.23, -26.62, -20.41, -27.96, -24.30, -19.02, -24.92, -23.89, -20.38, 0.000, 0.000, 0.000, 14:57:38.751
100, -29.12, -34.38, -19.42, -28.01, -25.66, -16.34, -26.49, -17.23, -26.42, -20.43, -27.92, -24.41, -18.86, -24.79, -23.58, -20.41, 0.000, 0.000, 0.000, 14:57:38.757
101, -29.33, -34.40, -19.49, -27.94, -25.77, -16.47, -26.46, -17.32, -26.42, -20.43, -27.92, -24.41, -18.86, -24.79, -23.58, -20.41, 0.000, 0.000, 0.000, 14:57:38.757
102, -29.33, -34.40, -19.49, -27.94, -25.77, -16.47, -26.46, -17.32, -26.60, -20.50, -27.83, -24.45, -19.00, -24.70, -23.74, -20.43, 0.000, 0.000, 0.000, 14:57:38.769
103, -29.10, -34.53, -19.58, -28.12, -25.73, -16.45, -26.49, -17.32, -26.60, -20.50, -27.83, -24.45, -19.00, -24.70, -23.74, -20.43, 0.000, 0.000, 0.000, 14:57:38.770
104, -29.10, -34.53, -19.58, -28.12, -25.73, -16.45, -26.49, -17.32, -26.58, -20.38, -27.94, -24.23, -19.16, -24.90, -23.76, -20.41, 0.000, 0.000, 0.000, 14:57:38.775
105, -29.37, -34.24, -19.31, -28.03, -25.70, -16.43, -26.44, -17.41, -26.58, -20.38, -27.94, -24.23, -19.16, -24.90, -23.76, -20.41, 0.000, 0.000, 0.000, 14:57:38.775
106, -29.37, -34.24, -19.31, -28.03, -25.70, -16.43, -26.44, -17.41, -26.49, -20.68, -27.69, -24.34, -18.80, -24.77, -23.69, -20.36, 0.000, 0.000, 0.000, 14:57:38.790
107, -29.35, -34.40, -19.29, -28.14, -25.73, -16.36, -26.49, -17.55, -26.49, -20.68, -27.69, -24.34, -18.80, -24.77, -23.69, -20.36, -0.104, 0.972, 0.140, 14:57:38.802
108, -29.35, -34.40, -19.29, -28.14, -25.73, -16.36, -26.49, -17.55, -26.62, -20.61, -27.81, -24.36, -19.11, -24.63, -23.87, -20.47, 0.000, 0.000, 0.000, 14:57:38.808
109, -29.26, -34.42, -19.29, -28.27, -25.62, -16.34, -26.38, -17.43, -26.62, -20.61, -27.81, -24.36, -19.11, -24.63, -23.87, -20.47, 0.000, 0.000, 0.000, 14:57:38.808
110, -29.26, -34.42, -19.29, -28.27, -25.62, -16.34, -26.38, -17.43, -26.64, -20.52, -27.92, -24.30, -18.89, -24.81, -23.80, -20.45, 0.000, 0.000, 0.000, 14:57:38.815
111, -29.37, -34.18, -19.38, -28.05, -25.75, -16.41, -26.35, -17.75, -26.64, -20.52, -27.92, -24.30, -18.89, -24.81, -23.80, -20.45, 0.000, 0.000, 0.000, 14:57:38.815
112, -29.37, -34.18, -19.38, -28.05, -25.75, -16.41, -26.35, -17.75, -26.40, -20.36, -28.03, -24.52, -19.16, -24.90, -23.74, -20.59, 0.000, 0.000, 0.000, 14:57:38.821
113, -29.10, -34.35, -19.45, -28.21, -25.57, -16.34, -26.46, -17.39, -26.40, -20.36, -28.03, -24.52, -19.16, -24.90, -23.74, -20.59, 0.000, 0.000, 0.000, 14:57:38.822
114, -29.10, -34.35, -19.45, -28.21, -25.57, -16.34, -26.46, -17.39, -26.62, -20.41, -27.72, -24.41, -19.24, -24.68, -23.67, -20.50, 0.000, 0.000, 0.000, 14:57:38.827
115, -29.30, -34.22, -19.49, -28.23, -25.73, -16.18, -26.49, -17.37, -26.62, -20.41, -27.72, -24.41, -19.24, -24.68, -23.67, -20.50, 0.000, 0.000, 0.000, 14:57:38.827
116, -29.30, -34.22, -19.49, -28.23, -25.73, -16.18, -26.49, -17.37, -26.58, -20.25, -27.67, -24.32, -18.95, -24.79, -23.69, -20.34, -0.108, 0.972, 0.148, 14:57:38.834
117, -29.46, -34.56, -19.60, -28.23, -25.84, -16.41, -26.24, -17.57, -26.58, -20.25, -27.67, -24.32, -18.95, -24.79, -23.69, -20.34, 0.000, 0.000, 0.000, 14:57:38.834
118, -29.46, -34.56, -19.60, -28.23, -25.84, -16.41, -26.24, -17.57, -26.67, -20.41, -27.69, -24.21, -18.93, -24.65, -23.87, -20.32, 0.000, 0.000, 0.000, 14:57:38.839
119, -29.46, -34.35, -19.42, -27.96, -25.53, -16.54, -26.42, -17.55, -26.67, -20.41, -27.69, -24.21, -18.93, -24.65, -23.87, -20.32, 0.000, 0.000, 0.000, 14:57:38.840
120, -29.46, -34.35, -19.42, -27.96, -25.53, -16.54, -26.42, -17.55, -26.73, -20.50, -27.74, -24.23, -19.16, -24.70, -23.94, -20.43, 0.000, 0.000, 0.000, 14:57:38.846
121, -29.26, -34.33, -19.38, -27.96, -25.68, -16.41, -26.35, -17.46, -26.73, -20.50, -27.74, -24.23, -19.16, -24.70, -23.94, -20.43, 0.000, 0.000, 0.000, 14:57:38.847
122, -29.26, -34.33, -19.38, -27.96, -25.68, -16.41, -26.35, -17.46, -26.73, -20.68, -27.83, -24.27, -19.22, -24.90, -23.65, -20.54, 0.000, 0.000, 0.000, 14:57:38.853
123, -29.19, -34.40, -19.49, -28.05, -25.86, -16.36, -26.40, -17.30, -26.73, -20.68, -27.83, -24.27, -19.22, -24.90, -23.65, -20.54, 0.000, 0.000, 0.000, 14:57:38.858
124, -29.19, -34.40, -19.49, -28.05, -25.86, -16.36, -26.40, -17.30, -26.58, -20.52, -27.69, -24.50, -19.16, -24.86, -23.74, -20.59, 0.000, 0.000, 0.000, 14:57:38.858
125, -29.26, -34.31, -19.38, -27.94, -25.73, -16.07, -26.51, -17.30, -26.58, -20.52, -27.69, -24.50, -19.16, -24.86, -23.74, -20.59, 0.000, 0.000, 0.000, 14:57:38.865
126, -29.26, -34.31, -19.38, -27.94, -25.73, -16.07, -26.51, -17.30, -26.71, -20.50, -27.69, -24.52, -19.04, -24.77, -23.87, -20.41, -0.106, 0.974, 0.150, 14:57:38.865
127, -29.21, -34.47, -19.29, -28.03, -25.84, -16.25, -26.51, -17.39, -26.71, -20.50, -27.69, -24.52, -19.04, -24.77, -23.87, -20.41, 0.000, 0.000, 0.000, 14:57:38.871
128, -29.21, -34.47, -19.29, -28.03, -25.84, -16.25, -26.51, -17.39, -26.71, -20.34, -27.72, -24.12, -19.16, -24.61, -23.80, -20.47, 0.000, 0.000, 0.000, 14:57:38.871
129, -29.26, -34.27, -19.65, -28.16, -25.75, -16.38, -26.44, -17.28, -26.71, -20.34, -27.72, -24.12, -19.16, -24.61, -23.80, -20.47, 0.000, 0.000, 0.000, 14:57:38.877
130, -29.26, -34.27, -19.65, -28.16, -25.75, -16.38, -26.44, -17.28, -26.69, -20.38, -27.76, -24.45, -19.20, -24.81, -23.78, -20.45, 0.000, 0.000, 0.000, 14:57:38.877
131, -29.28, -34.33, -19.62, -28.07, -25.68, -16.32, -26.58, -17.32, -26.69, -20.38, -27.76, -24.45, -19.20, -24.81, -23.78, -20.45, 0.000, 0.000, 0.000, 14:57:38.884
132, -29.28, -34.33, -19.62, -28.07, -25.68, -16.32, -26.58, -17.32, -26.67, -20.38, -27.89, -24.61, -19.11, -24.70, -23.94, -20.45, 0.000, 0.000, 0.000, 14:57:38.884
133, -29.30, -34.33, -19.40, -28.14, -25.70, -16.32, -26.60, -17.41, -26.67, -20.38, -27.89, -24.61, -19.11, -24.70, -23.94, -20.45, 0.000, 0.000, 0.000, 14:57:38.889
134, -29.30, -34.33, -19.40, -28.14, -25.70, -16.32, -26.60, -17.41, -26.84, -20.45, -27.98, -24.43, -19.02, -24.88, -23.98, -20.43, 0.000, 0.000, 0.000, 14:57:38.890
135, -29.39, -34.35, -19.42, -28.25, -25.55, -16.25, -26.53, -17.41, -26.84, -20.45, -27.98, -24.43, -19.02, -24.88, -23.98, -20.43, 0.000, 0.000, 0.000, 14:57:38.895
136, -29.39, -34.35, -19.42, -28.25, -25.55, -16.25, -26.53, -17.41, -26.60, -20.36, -27.74, -24.50, -18.98, -24.86, -23.69, -20.27, -0.110, 0.968, 0.148, 14:57:38.896
137, -29.01, -34.53, -19.49, -28.05, -25.50, -16.43, -26.31, -17.48, -26.60, -20.36, -27.74, -24.50, -18.98, -24.86, -23.69, -20.27, 0.000, 0.000, 0.000, 14:57:38.902
138, -29.01, -34.53, -19.49, -28.05, -25.50, -16.43, -26.31, -17.48, -26.73, -20.38, -27.65, -24.14, -19.04, -24.74, -23.78, -20.32, 0.000, 0.000, 0.000, 14:57:38.908
139, -29.30, -34.42, -19.40, -28.16, -25.57, -16.41, -26.24, -17.50, -26.73, -20.38, -27.65, -24.14, -19.04, -24.74, -23.78, -20.32, 0.000, 0.000, 0.000, 14:57:38.908
140, -29.30, -34.42, -19.40, -28.16, -25.57, -16.41, -26.24, -17.50, -26.55, -20.59, -27.87, -24.18, -19.04, -24.83, -23.56, -20.50, 0.000, 0.000, 0.000, 14:57:38.914
141, -29.30, -34.22, -19.36, -28.14, -25.73, -16.16, -26.26, -17.23, -26.55, -20.59, -27.87, -24.18, -19.04, -24.83, -23.56, -20.50, 0.000, 0.000, 0.000, 14:57:38.915
142, -29.30, -34.22, -19.36, -28.14, -25.73, -16.16, -26.26, -17.23, -26.62, -20.36, -27.81, -24.27, -19.02, -24.92, -23.74, -20.18, 0.000, 0.000, 0.000, 14:57:38.921
143, -29.33, -34.18, -19.51, -27.98, -25.70, -16.38, -26.55, -17.41, -26.62, -20.36, -27.81, -24.27, -19.02, -24.92, -23.74, -20.18, 0.000, 0.000, 0.000, 14:57:38.921
144, -29.33, -34.18, -19.51, -27.98, -25.70, -16.38, -26.55, -17.41, -26.55, -20.61, -27.81, -24.43, -19.00, -24.86, -23.76, -20.23, 0.000, 0.000, 0.000, 14:57:38.927
145, -29.37, -34.35, -19.36, -27.98, -25.53, -16.41, -26.53, -17.57, -26.55, -20.61, -27.81, -24.43, -19.00, -24.86, -23.76, -20.23, 0.000, 0.000, 0.000, 14:57:38.928
146, -29.37, -34.35, -19.36, -27.98, -25.53, -16.41, -26.53, -17.57, -26.62, -20.59, -27.81, -24.48, -18.93, -24.59, -23.83, -20.36, -0.106, 0.974, 0.150, 14:57:38.934
147, -29.44, -34.49, -19.62, -28.16, -25.55, -16.25, -26.60, -17.39, -26.62, -20.59, -27.81, -24.48, -18.93, -24.59, -23.83, -20.36, 0.000, 0.000, 0.000, 14:57:38.934
148, -29.44, -34.49, -19.62, -28.16, -25.55, -16.25, -26.60, -17.39, -26.71, -20.50, -27.85, -24.36, -19.04, -24.70, -23.74, -20.38, 0.000, 0.000, 0.000, 14:57:38.941
149, -29.28, -34.31, -19.51, -28.01, -25.84, -16.50, -26.46, -17.57, -26.71, -20.50, -27.85, -24.36, -19.04, -24.70, -23.74, -20.38, 0.000, 0.000, 0.000, 14:57:38.942
150, -29.28, -34.31, -19.51, -28.01, -25.84, -16.50, -26.46, -17.57, -26.67, -20.43, -27.92, -24.39, -18.98, -24.77, -23.69, -20.32, 0.000, 0.000, 0.000, 14:57:38.946
151, -29.28, -34.44, -19.40, -28.14, -25.68, -16.38, -26.33, -17.48, -26.67, -20.43, -27.92, -24.39, -18.98, -24.77, -23.69, -20.32, 0.000, 0.000, 0.000, 14:57:38.946
152, -29.28, -34.44, -19.40, -28.14, -25.68, -16.38, -26.33, -17.48, -26.44, -20.56, -27.78, -24.41, -19.07, -24.86, -23.78, -20.38, 0.000, 0.000, 0.000, 14:57:38.952
153, -29.17, -34.49, -19.45, -28.14, -25.55, -16.38, -26.44, -17.34, -26.44, -20.56, -27.78, -24.41, -19.07, -24.86, -23.78, -20.38, 0.000, 0.000, 0.000, 14:57:38.958
154, -29.17, -34.49, -19.45, -28.14, -25.55, -16.38, -26.44, -17.34, -26.60, -20.59, -27.78, -24.48, -19.13, -24.77, -23.78, -20.32, 0.000, 0.000, 0.000, 14:57:38.959
155, -29.21, -34.33, -19.33, -28.01, -25.59, -16.41, -26.33, -17.37, -26.60, -20.59, -27.78, -24.48, -19.13, -24.77, -23.78, -20.32, 0.000, 0.000, 0.000, 14:57:38.965
156, -29.21, -34.33, -19.33, -28.01, -25.59, -16.41, -26.33, -17.37, -26.60, -20.52, -27.92, -24.39, -18.86, -24.63, -23.78, -20.50, -0.102, 0.976, 0.142, 14:57:38.965
157, -29.10, -34.27, -19.11, -27.94, -25.64, -16.41, -26.42, -17.39, -26.60, -20.52, -27.92, -24.39, -18.86, -24.63, -23.78, -20.50, 0.000, 0.000, 0.000, 14:57:38.972
158, -29.10, -34.27, -19.11, -27.94, -25.64, -16.41, -26.42, -17.39, -26.46, -20.47, -27.63, -24.48, -19.09, -24.68, -23.78, -20.43, 0.000, 0.000, 0.000, 14:57:38.972
159, -29.15, -34.31, -19.58, -28.21, -25.68, -16.18, -26.55, -17.41, -26.46, -20.47, -27.63, -24.48, -19.09, -24.68, -23.78, -20.43, 0.000, 0.000, 0.000, 14:57:38.977
160, -29.15, -34.31, -19.58, -28.21, -25.68, -16.18, -26.55, -17.41, -26.64, -20.36, -27.87, -24.59, -19.16, -24.79, -23.87, -20.38, 0.000, 0.000, 0.000, 14:57:38.977
161, -29.39, -34.53, -19.60, -27.96, -25.82, -16.27, -26.15, -17.26, -26.64, -20.36, -27.87, -24.59, -19.16, -24.79, -23.87, -20.38, 0.000, 0.000, 0.000, 14:57:38.985
162, -29.39, -34.53, -19.60, -27.96, -25.82, -16.27, -26.15, -17.26, -26.73, -20.34, -27.89, -24.41, -18.80, -24.63, -23.74, -20.45, 0.000, 0.000, 0.000, 14:57:38.985
163, -29.24, -34.35, -19.54, -28.01, -25.84, -16.29, -26.38, -17.30, -26.73, -20.34, -27.89, -24.41, -18.80, -24.63, -23.74, -20.45, 0.000, 0.000, 0.000, 14:57:38.992
164, -29.24, -34.35, -19.54, -28.01, -25.84, -16.29, -26.38, -17.30, -26.44, -20.30, -27.85, -24.48, -19.13, -24.68, -23.76, -20.36, 0.000, 0.000, 0.000, 14:57:38.993
165, -29.24, -34.51, -19.38, -28.12, -25.77, -16.38, -26.17, -17.37, -26.44, -20.30, -27.85, -24.48, -19.13, -24.68, -23.76, -20.36, 0.000, 0.000, 0.000, 14:57:39.000
166, -29.24, -34.51, -19.38, -28.12, -25.77, -16.38, -26.17, -17.37, -26.67, -20.50, -27.83, -24.56, -19.09, -24.72, -23.76, -20.43, -0.104, 0.972, 0.148, 14:57:39.000
167, -29.30, -34.51, -19.31, -28.14, -25.70, -16.45, -26.31, -17.32, -26.67, -20.50, -27.83, -24.56, -19.09, -24.72, -23.76, -20.43, 0.000, 0.000, 0.000, 14:57:39.007
168, -29.30, -34.51, -19.31, -28.14, -25.70, -16.45, -26.31, -17.32, -26.49, -20.50, -27.72, -24.48, -19.07, -24.77, -23.89, -20.41, 0.000, 0.000, 0.000, 14:57:39.007
169, -29.37, -34.49, -19.56, -28.05, -25.75, -16.32, -26.46, -17.48, -26.49, -20.50, -27.72, -24.48, -19.07, -24.77, -23.89, -20.41, 0.000, 0.000, 0.000, 14:57:39.014
170, -29.37, -34.49, -19.56, -28.05, -25.75, -16.32, -26.46, -17.48, -26.62, -20.65, -27.67, -24.43, -18.93, -24.86, -23.85, -20.32, 0.000, 0.000, 0.000, 14:57:39.023
171, -29.35, -34.35, -19.33, -28.05, -25.62, -16.38, -26.42, -17.52, -26.62, -20.65, -27.67, -24.43, -18.93, -24.86, -23.85, -20.32, 0.000, 0.000, 0.000, 14:57:39.023
172, -29.35, -34.35, -19.33, -28.05, -25.62, -16.38, -26.42, -17.52, -26.44, -20.70, -27.69, -24.48, -19.20, -24.68, -23.72, -20.38, 0.000, 0.000, 0.000, 14:57:39.038
173, -29.35, -34.33, -19.42, -28.19, -25.64, -16.63, -26.44, -17.39, -26.44, -20.70, -27.69, -24.48, -19.20, -24.68, -23.72, -20.38, 0.000, 0.000, 0.000, 14:57:39.078
174, -29.35, -34.33, -19.42, -28.19, -25.64, -16.63, -26.44, -17.39, -26.60, -20.56, -27.96, -24.32, -19.09, -24.79, -23.94, -20.43, 0.000, 0.000, 0.000, 14:57:39.078
175, -29.48, -34.24, -19.47, -28.23, -25.86, -16.45, -26.64, -17.39, -26.60, -20.56, -27.96, -24.32, -19.09, -24.79, -23.94, -20.43, 0.000, 0.000, 0.000, 14:57:39.085
176, -29.48, -34.24, -19.47, -28.23, -25.86, -16.45, -26.64, -17.39, -26.73, -20.50, -27.96, -24.45, -19.02, -24.79, -23.74, -20.38, -0.106, 0.968, 0.146, 14:57:39.085
177, -29.53, -34.40, -19.29, -27.98, -25.75, -16.32, -26.35, -17.34, -26.73, -20.50, -27.96, -24.45, -19.02, -24.79, -23.74, -20.38, 0.000, 0.000, 0.000, 14:57:39.091
178, -29.53, -34.40, -19.29, -27.98, -25.75, -16.32, -26.35, -17.34, -26.46, -20.54, -27.96, -24.45, -18.89, -24.72, -23.60, -20.54, 0.000, 0.000, 0.000, 14:57:39.092
179, -29.41, -34.27, -19.58, -28.12, -25.41, -16.41, -26.15, -17.34, -26.46, -20.54, -27.96, -24.45, -18.89, -24.72, -23.60, -20.54, 0.000, 0.000, 0.000, 14:57:39.098
180, -29.41, -34.27, -19.58, -28.12, -25.41, -16.41, -26.15, -17.34, -26.69, -20.41, -27.60, -24.30, -19.11, -24.70, -23.76, -20.54, 0.000, 0.000, 0.000, 14:57:39.098
181, -29.24, -34.24, -19.38, -28.25, -25.77, -16.29, -26.33, -17.43, -26.69, -20.41, -27.60, -24.30, -19.11, -24.70, -23.76, -20.54, 0.000, 0.000, 0.000, 14:57:39.104
182, -29.24, -34.24, -19.38, -28.25, -25.77, -16.29, -26.33, -17.43, -26.78, -20.50, -27.74, -24.41, -19.16, -24.61, -23.72, -20.50, 0.000, 0.000, 0.000, 14:57:39.105
183, -29.35, -34.42, -19.49, -28.07, -25.75, -16.34, -26.33, -17.41, -26.78, -20.50, -27.74, -24.41, -19.16, -24.61, -23.72, -20.50, 0.000, 0.000, 0.000, 14:57:39.111
184, -29.35, -34.42, -19.49, -28.07, -25.75, -16.34, -26.33, -17.41, -26.80, -20.56, -28.03, -24.48, -19.09, -24.83, -23.74, -20.41, 0.000, 0.000, 0.000, 14:57:39.111
185, -29.39, -34.42, -19.49, -27.96, -25.59, -16.36, -26.49, -17.77, -26.80, -20.56, -28.03, -24.48, -19.09, -24.83, -23.74, -20.41, 0.000, 0.000, 0.000, 14:57:39.117
186, -29.39, -34.42, -19.49, -27.96, -25.59, -16.36, -26.49, -17.77, -26.67, -20.41, -27.83, -24.34, -19.00, -24.79, -23.67, -20.52, -0.104, 0.972, 0.146, 14:57:39.124
187, -28.97, -34.42, -19.27, -28.16, -25.48, -16.41, -26.24, -17.59, -26.67, -20.41, -27.83, -24.34, -19.00, -24.79, -23.67, -20.52, 0.000, 0.000, 0.000, 14:57:39.124
188, -28.97, -34.42, -19.27, -28.16, -25.48, -16.41, -26.24, -17.59, -26.64, -20.65, -27.78, -24.30, -19.13, -24.70, -23.76, -20.32, 0.000, 0.000, 0.000, 14:57:39.129
189, -29.19, -34.47, -19.16, -28.23, -25.62, -16.41, -26.44, -17.52, -26.64, -20.65, -27.78, -24.30, -19.13, -24.70, -23.76, -20.32, 0.000, 0.000, 0.000, 14:57:39.130
190, -29.19, -34.47, -19.16, -28.23, -25.62, -16.41, -26.44, -17.52, -26.67, -20.50, -27.85, -24.30, -19.09, -24.83, -23.74, -20.47, 0.000, 0.000, 0.000, 14:57:39.136
191, -29.15, -34.38, -19.29, -28.32, -25.46, -16.18, -26.49, -17.46, -26.67, -20.50, -27.85, -24.30, -19.09, -24.83, -23.74, -20.47, 0.000, 0.000, 0.000, 14:57:39.136
192, -29.15, -34.38, -19.29, -28.32, -25.46, -16.18, -26.49, -17.46, -26.58, -20.63, -27.89, -24.32, -19.09, -24.86, -23.72, -20.21, 0.000, 0.000, 0.000, 14:57:39.143
193, -29.17, -34.24, -19.24, -28.14, -25.50, -16.29, -26.38, -17.39, -26.58, -20.63, -27.89, -24.32, -19.09, -24.86, -23.72, -20.21, 0.000, 0.000, 0.000, 14:57:39.143
194, -29.17, -34.24, -19.24, -28.14, -25.50, -16.29, -26.38, -17.39, -26.64, -20.56, -27.87, -24.32, -18.84, -25.03, -23.63, -20.38, 0.000, 0.000, 0.000, 14:57:39.148
195, -29.19, -34.27, -19.33, -28.25, -25.79, -16.47, -26.53, -17.57, -26.64, -20.56, -27.87, -24.32, -18.84, -25.03, -23.63, -20.38, 0.000, 0.000, 0.000, 14:57:39.148
196, -29.19, -34.27, -19.33, -28.25, -25.79, -16.47, -26.53, -17.57, -26.62, -20.45, -27.81, -24.32, -18.89, -24.88, -23.80, -20.54, -0.108, 0.972, 0.152, 14:57:39.155
197, -29.26, -34.35, -19.36, -28.12, -25.82, -16.25, -26.38, -17.37, -26.62, -20.45, -27.81, -24.32, -18.89, -24.88, -23.80, -20.54, 0.000, 0.000, 0.000, 14:57:39.155
198, -29.26, -34.35, -19.36, -28.12, -25.82, -16.25, -26.38, -17.37, -26.69, -20.30, -27.78, -24.48, -18.82, -24.90, -23.76, -20.47, 0.000, 0.000, 0.000, 14:57:39.161
199, -29.28, -34.33, -19.36, -28.07, -25.75, -16.32, -26.31, -17.32, -26.69, -20.30, -27.78, -24.48, -18.82, -24.90, -23.76, -20.47, 0.000, 0.000, 0.000, 14:57:39.161
200, -29.28, -34.33, -19.36, -28.07, -25.75, -16.32, -26.31, -17.32, -26.76, -20.43, -27.78, -24.41, -19.00, -24.94, -23.83, -20.61, 0.000, 0.000, 0.000, 14:57:39.168
201, -29.46, -34.35, -19.45, -28.10, -25.75, -16.52, -26.29, -17.57, -26.76, -20.43, -27.78, -24.41, -19.00, -24.94, -23.83, -20.61, 0.000, 0.000, 0.000, 14:57:39.173
202, -29.46, -34.35, -19.45, -28.10, -25.75, -16.52, -26.29, -17.57, -26.69, -20.38, -27.87, -24.07, -19.16, -24.70, -23.72, -20.41, 0.000, 0.000, 0.000, 14:57:39.173
203, -29.44, -34.29, -19.71, -28.16, -25.82, -16.61, -26.26, -17.59, -26.69, -20.38, -27.87, -24.07, -19.16, -24.70, -23.72, -20.41, 0.000, 0.000, 0.000, 14:57:39.179
204, -29.44, -34.29, -19.71, -28.16, -25.82, -16.61, -26.26, -17.59, -26.64, -20.81, -27.81, -24.41, -18.93, -24.59, -23.69, -20.47, 0.000, 0.000, 0.000, 14:57:39.180
205, -29.55, -34.27, -19.58, -28.10, -25.77, -16.23, -26.42, -17.34, -26.64, -20.81, -27.81, -24.41, -18.93, -24.59, -23.69, -20.47, 0.000, 0.000, 0.000, 14:57:39.185
206, -29.55, -34.27, -19.58, -28.10, -25.77, -16.23, -26.42, -17.34, -26.80, -20.63, -27.94, -24.32, -18.86, -24.83, -23.78, -20.59, -0.110, 0.962, 0.150, 14:57:39.185
207, -29.26, -34.31, -19.51, -28.07, -25.75, -16.50, -26.29, -17.57, -26.80, -20.63, -27.94, -24.32, -18.86, -24.83, -23.78, -20.59, 0.000, 0.000, 0.000, 14:57:39.192
208, -29.26, -34.31, -19.51, -28.07, -25.75, -16.50, -26.29, -17.57, -26.69, -20.45, -27.76, -24.34, -19.11, -24.59, -23.72, -20.41, 0.000, 0.000, 0.000, 14:57:39.192
209, -29.35, -34.38, -19.27, -28.34, -25.57, -16.32, -26.62, -17.46, -26.69, -20.45, -27.76, -24.34, -19.11, -24.59, -23.72, -20.41, 0.000, 0.000, 0.000, 14:57:39.198
210, -29.35, -34.38, -19.27, -28.34, -25.57, -16.32, -26.62, -17.46, -26.51, -20.54, -27.83, -24.34, -19.07, -24.90, -23.69, -20.30, 0.000, 0.000, 0.000, 14:57:39.199
211, -29.33, -34.33, -19.56, -28.21, -25.57, -16.32, -26.51, -17.55, -26.51, -20.54, -27.83, -24.34, -19.07, -24.90, -23.69, -20.30, 0.000, 0.000, 0.000, 14:57:39.205
212, -29.33, -34.33, -19.56, -28.21, -25.57, -16.32, -26.51, -17.55, -26.53, -20.38, -27.81, -24.45, -19.04, -24.65, -23.63, -20.32, 0.000, 0.000, 0.000, 14:57:39.205
213, -29.41, -34.40, -19.40, -28.16, -25.73, -16.56, -26.44, -17.50, -26.53, -20.38, -27.81, -24.45, -19.04, -24.65, -23.63, -20.32, 0.000, 0.000, 0.000, 14:57:39.210
214, -29.41, -34.40, -19.40, -28.16, -25.73, -16.56, -26.44, -17.50, -26.64, -20.21, -27.74, -24.30, -19.16, -24.86, -23.69, -20.38, 0.000, 0.000, 0.000, 14:57:39.210
215, -29.21, -34.35, -19.58, -27.94, -25.73, -16.38, -26.42, -17.46, -26.64, -20.21, -27.74, -24.30, -19.16, -24.86, -23.69, -20.38, 0.000, 0.000, 0.000, 14:57:39.217
216, -29.21, -34.35, -19.58, -27.94, -25.73, -16.38, -26.42, -17.46, -26.73, -20.59, -27.67, -24.34, -18.95, -24.88, -23.76, -20.18, -0.110, 0.966, 0.148, 14:57:39.223
217, -29.33, -34.31, -19.49, -28.27, -25.59, -16.41, -26.22, -17.50, -26.73, -20.59, -27.67, -24.34, -18.95, -24.88, -23.76, -20.18, 0.000, 0.000, 0.000, 14:57:39.223
218, -29.33, -34.31, -19.49, -28.27, -25.59, -16.41, -26.22, -17.50, -26.67, -20.59, -27.63, -24.39, -19.13, -24.92, -23.63, -20.25, 0.000, 0.000, 0.000, 14:57:39.229
219, -29.41, -34.22, -19.33, -27.94, -25.62, -16.41, -26.22, -17.48, -26.67, -20.59, -27.63, -24.39, -19.13, -24.92, -23.63, -20.25, 0.000, 0.000, 0.000, 14:57:39.229
220, -29.41, -34.22, -19.33, -27.94, -25.62, -16.41, -26.22, -17.48, -26.46, -20.50, -27.81, -24.25, -19.16, -24.74, -23.89, -20.59, 0.000, 0.000, 0.000, 14:57:39.235
221, -29.44, -34.31, -19.40, -28.10, -25.77, -16.41, -26.40, -17.50, -26.46, -20.50, -27.81, -24.25, -19.16, -24.74, -23.89, -20.59, 0.000, 0.000, 0.000, 14:57:39.236
222, -29.44, -34.31, -19.40, -28.10, -25.77, -16.41, -26.40, -17.50, -26.60, -20.54, -27.83, -24.23, -19.00, -24.79, -23.80, -20.47, 0.000, 0.000, 0.000, 14:57:39.242
223, -29.10, -34.35, -19.42, -28.10, -25.82, -16.32, -26.40, -17.57, -26.60, -20.54, -27.83, -24.23, -19.00, -24.79, -23.80, -20.47, 0.000, 0.000, 0.000, 14:57:39.242
224, -29.10, -34.35, -19.42, -28.10, -25.82, -16.32, -26.40, -17.57, -26.71, -20.54, -27.89, -24.36, -18.95, -24.77, -23.76, -20.50, 0.000, 0.000, 0.000, 14:57:39.247
225, -29.26, -34.47, -19.24, -28.12, -25.91, -16.45, -26.04, -17.37, -26.71, -20.54, -27.89, -24.36, -18.95, -24.77, -23.76, -20.50, 0.000, 0.000, 0.000, 14:57:39.248
226, -29.26, -34.47, -19.24, -28.12, -25.91, -16.45, -26.04, -17.37, -26.71, -20.56, -27.92, -24.50, -19.09, -24.88, -23.89, -20.30, -0.102, 0.968, 0.144, 14:57:39.254
227, -29.24, -34.35, -19.38, -28.03, -25.68, -16.38, -26.17, -17.59, -26.71, -20.56, -27.92, -24.50, -19.09, -24.88, -23.89, -20.30, 0.000, 0.000, 0.000, 14:57:39.254
228, -29.24, -34.35, -19.38, -28.03, -25.68, -16.38, -26.17, -17.59, -26.73, -20.41, -27.65, -24.36, -19.07, -24.81, -23.96, -20.27, 0.000, 0.000, 0.000, 14:57:39.261
229, -29.37, -34.29, -19.42, -28.10, -25.79, -16.38, -26.42, -17.72, -26.73, -20.41, -27.65, -24.36, -19.07, -24.81, -23.96, -20.27, 0.000, 0.000, 0.000, 14:57:39.261
230, -29.37, -34.29, -19.42, -28.10, -25.79, -16.38, -26.42, -17.72, -26.71, -20.61, -27.85, -24.39, -19.04, -24.68, -23.96, -20.36, 0.000, 0.000, 0.000, 14:57:39.266
231, -29.37, -34.42, -19.38, -27.96, -25.64, -16.41, -26.60, -17.48, -26.71, -20.61, -27.85, -24.39, -19.04, -24.68, -23.96, -20.36, 0.000, 0.000, 0.000, 14:57:39.266
232, -29.37, -34.42, -19.38, -27.96, -25.64, -16.41, -26.60, -17.48, -26.55, -20.61, -27.76, -24.25, -19.13, -24.61, -23.94, -20.45, 0.000, 0.000, 0.000, 14:57:39.273
233, -29.30, -34.38, -19.38, -28.12, -25.68, -16.32, -26.62, -17.55, -26.55, -20.61, -27.76, -24.25, -19.13, -24.61, -23.94, -20.45, 0.000, 0.000, 0.000, 14:57:39.279
234, -29.30, -34.38, -19.38, -28.12, -25.68, -16.32, -26.62, -17.55, -26.40, -20.63, -27.74, -24.34, -19.00, -24.77, -23.87, -20.47, 0.000, 0.000, 0.000, 14:57:39.279
235, -29.53, -34.29, -19.62, -28.25, -25.53, -16.36, -26.53, -17.41, -26.40, -20.63, -27.74, -24.34, -19.00, -24.77, -23.87, -20.47, 0.000, 0.000, 0.000, 14:57:39.285
236, -29.53, -34.29, -19.62, -28.25, -25.53, -16.36, -26.53, -17.41, -26.58, -20.56, -27.69, -24.27, -18.95, -24.54, -23.72, -20.30, -0.100, 0.968, 0.152, 14:57:39.285
237, -29.35, -34.40, -19.42, -28.16, -25.62, -16.38, -26.33, -17.41, -26.58, -20.56, -27.69, -24.27, -18.95, -24.54, -23.72, -20.30, 0.000, 0.000, 0.000, 14:57:39.292
238, -29.35, -34.40, -19.42, -28.16, -25.62, -16.38, -26.33, -17.41, -26.62, -20.54, -27.76, -24.18, -19.00, -24.83, -23.69, -20.18, 0.000, 0.000, 0.000, 14:57:39.292
239, -29.39, -34.58, -19.33, -28.05, -25.59, -16.34, -26.40, -17.64, -26.62, -20.54, -27.76, -24.18, -19.00, -24.83, -23.69, -20.18, 0.000, 0.000, 0.000, 14:57:39.298
240, -29.39, -34.58, -19.33, -28.05, -25.59, -16.34, -26.40, -17.64, -26.53, -20.50, -27.92, -24.18, -19.09, -24.83, -23.74, -20.36, 0.000, 0.000, 0.000, 14:57:39.298
241, -29.08, -34.38, -19.36, -28.16, -25.77, -16.32, -26.33, -17.61, -26.53, -20.50, -27.92, -24.18, -19.09, -24.83, -23.74, -20.36, 0.000, 0.000, 0.000, 14:57:39.304
242, -29.08, -34.38, -19.36, -28.16, -25.77, -16.32, -26.33, -17.61, -26.60, -20.52, -27.67, -24.52, -18.84, -24.90, -23.80, -20.45, 0.000, 0.000, 0.000, 14:57:39.304
243, -29.33, -34.56, -19.54, -28.03, -25.97, -16.43, -26.35, -17.48, -26.60, -20.52, -27.67, -24.52, -18.84, -24.90, -23.80, -20.45, 0.000, 0.000, 0.000, 14:57:39.312
244, -29.33, -34.56, -19.54, -28.03, -25.97, -16.43, -26.35, -17.48, -26.53, -20.52, -27.72, -24.45, -19.07, -24.74, -23.51, -20.54, 0.000, 0.000, 0.000, 14:57:39.312
245, -29.44, -34.35, -19.47, -28.12, -25.68, -16.38, -26.20, -17.48, -26.53, -20.52, -27.72, -24.45, -19.07, -24.74, -23.51, -20.54, 0.000, 0.000, 0.000, 14:57:39.321
246, -29.44, -34.35, -19.47, -28.12, -25.68, -16.38, -26.20, -17.48, -26.62, -20.61, -27.83, -24.34, -19.11, -24.79, -23.65, -20.36, -0.112, 0.970, 0.152, 14:57:39.321
247, -29.30, -34.35, -19.65, -28.36, -25.73, -16.45, -26.31, -17.55, -26.62, -20.61, -27.83, -24.34, -19.11, -24.79, -23.65, -20.36, 0.000, 0.000, 0.000, 14:57:39.328
248, -29.30, -34.35, -19.65, -28.36, -25.73, -16.45, -26.31, -17.55, -26.53, -20.72, -27.72, -24.32, -19.11, -24.99, -23.85, -20.50, 0.000, 0.000, 0.000, 14:57:39.333
249, -29.53, -34.24, -19.65, -28.10, -25.70, -16.36, -26.46, -17.26, -26.53, -20.72, -27.72, -24.32, -19.11, -24.99, -23.85, -20.50, 0.000, 0.000, 0.000, 14:57:39.333
250, -29.53, -34.24, -19.65, -28.10, -25.70, -16.36, -26.46, -17.26, -26.78, -20.56, -27.81, -24.25, -19.11, -25.12, -23.78, -20.65, 0.000, 0.000, 0.000, 14:57:39.342
251, -29.48, -34.31, -19.49, -28.03, -25.68, -16.41, -26.38, -17.34, -26.78, -20.56, -27.81, -24.25, -19.11, -25.12, -23.78, -20.65, 0.000, 0.000, 0.000, 14:57:39.342
252, -29.48, -34.31, -19.49, -28.03, -25.68, -16.41, -26.38, -17.34, -26.71, -20.54, -27.78, -24.16, -18.82, -24.70, -23.94, -20.41, 0.000, 0.000, 0.000, 14:57:39.350
253, -29.26, -34.53, -19.36, -28.01, -25.75, -16.45, -26.33, -17.41, -26.71, -20.54, -27.78, -24.16, -18.82, -24.70, -23.94, -20.41, 0.000, 0.000, 0.000, 14:57:39.350
254, -29.26, -34.53, -19.36, -28.01, -25.75, -16.45, -26.33, -17.41, -26.55, -20.59, -28.01, -24.50, -19.24, -24.59, -23.76, -20.30, 0.000, 0.000, 0.000, 14:57:39.358
255, -29.37, -34.27, -19.49, -27.94, -25.84, -16.29, -26.33, -17.57, -26.55, -20.59, -28.01, -24.50, -19.24, -24.59, -23.76, -20.30, 0.000, 0.000, 0.000, 14:57:39.358
0, -29.37, -34.27, -19.49, -27.94, -25.84, -16.29, -26.33, -17.57, -26.58, -20.54, -27.81, -24.34, -19.16, -24.88, -23.80, -20.21, -0.116, 0.970, 0.150, 14:57:39.366
1, -29.46, -34.44, -19.36, -28.19, -25.88, -16.32, -26.40, -17.59, -26.58, -20.54, -27.81, -24.34, -19.16, -24.88, -23.80, -20.21, 0.000, 0.000, 0.000, 14:57:39.366
2, -29.46, -34.44, -19.36, -28.19, -25.88, -16.32, -26.40, -17.59, -26.51, -20.27, -27.74, -24.32, -19.04, -24.92, -23.89, -20.45, 0.000, 0.000, 0.000, 14:57:39.381
3, -29.35, -34.29, -19.33, -28.25, -25.68, -16.54, -26.40, -17.43, -26.51, -20.27, -27.74, -24.32, -19.04, -24.92, -23.89, -20.45, 0.000, 0.000, 0.000, 14:57:39.381
4, -29.35, -34.29, -19.33, -28.25, -25.68, -16.54, -26.40, -17.43, -26.58, -20.38, -27.65, -24.34, -19.09, -24.94, -23.83, -20.52, 0.000, 0.000, 0.000, 14:57:39.397
5, -29.24, -34.24, -19.40, -28.01, -25.84, -16.52, -26.44, -17.50, -26.58, -20.38, -27.65, -24.34, -19.09, -24.94, -23.83, -20.52, 0.000, 0.000, 0.000, 14:57:39.405
6, -29.24, -34.24, -19.40, -28.01, -25.84, -16.52, -26.44, -17.50, -26.62, -20.34, -27.83, -24.36, -18.89, -24.79, -23.45, -20.43, 0.000, 0.000, 0.000, 14:57:39.405
7, -29.35, -34.49, -19.62, -27.96, -25.75, -16.52, -26.29, -17.64, -26.62, -20.34, -27.83, -24.36, -18.89, -24.79, -23.45, -20.43, 0.000, 0.000, 0.000, 14:57:39.412
8, -29.35, -34.49, -19.62, -27.96, -25.75, -16.52, -26.29, -17.64, -26.42, -20.50, -27.78, -24.36, -18.91, -24.77, -23.85, -20.43, 0.000, 0.000, 0.000, 14:57:39.412
9, -29.37, -34.40, -19.36, -28.05, -25.75, -16.27, -26.40, -17.26, -26.42, -20.50, -27.78, -24.36, -18.91, -24.77, -23.85, -20.43, 0.000, 0.000, 0.000, 14:57:39.423
10, -29.37, -34.40, -19.36, -28.05, -25.75, -16.27, -26.40, -17.26, -26.55, -20.54, -27.67, -24.34, -19.07, -24.70, -23.85, -20.16, -0.106, 0.972, 0.148, 14:57:39.423
11, -29.39, -34.53, -19.45, -27.98, -25.82, -16.21, -26.40, -17.39, -26.55, -20.54, -27.67, -24.34, -19.07, -24.70, -23.85, -20.16, 0.000, 0.000, 0.000, 14:57:39.438
12, -29.39, -34.53, -19.45, -27.98, -25.82, -16.21, -26.40, -17.39, -26.67, -20.54, -27.76, -24.43, -19.18, -24.86, -23.87, -20.23, 0.000, 0.000, 0.000, 14:57:39.452
13, -29.01, -34.44, -19.38, -28.07, -25.62, -16.25, -26.26, -17.52, -26.67, -20.54, -27.76, -24.43, -19.18, -24.86, -23.87, -20.23, 0.000, 0.000, 0.000, 14:57:39.457
14, -29.01, -34.44, -19.38, -28.07, -25.62, -16.25, -26.26, -17.52, -26.82, -20.36, -27.96, -24.32, -18.95, -24.72, -23.98, -20.36, 0.000, 0.000, 0.000, 14:57:39.457
15, -29.15, -34.33, -19.36, -28.21, -25.59, -16.29, -26.35, -17.52, -26.82, -20.36, -27.96, -24.32, -18.95, -24.72, -23.98, -20.36, 0.000, 0.000, 0.000, 14:57:39.472
16, -29.15, -34.33, -19.36, -28.21, -25.59, -16.29, -26.35, -17.52, -26.73, -20.63, -27.83, -24.34, -18.93, -24.79, -23.85, -20.38, 0.000, 0.000, 0.000, 14:57:39.478
17, -29.12, -34.51, -19.29, -28.34, -26.02, -16.43, -26.31, -17.50, -26.73, -20.63, -27.83, -24.34, -18.93, -24.79, -23.85, -20.38, 0.000, 0.000, 0.000, 14:57:39.479
18, -29.12, -34.51, -19.29, -28.34, -26.02, -16.43, -26.31, -17.50, -26.62, -20.59, -27.81, -24.30, -19.09, -24.65, -23.72, -20.36, 0.000, 0.000, 0.000, 14:57:39.486
19, -29.21, -34.29, -19.51, -28.32, -25.75, -16.45, -26.33, -17.55, -26.62, -20.59, -27.81, -24.30, -19.09, -24.65, -23.72, -20.36, 0.000, 0.000, 0.000, 14:57:39.486
20, -29.21, -34.29, -19.51, -28.32, -25.75, -16.45, -26.33, -17.55, -26.69, -20.25, -27.98, -24.30, -19.02, -24.86, -23.96, -20.38, -0.104, 0.970, 0.150, 14:57:39.492
21, -29.19, -34.38, -19.47, -28.10, -25.62, -16.47, -26.40, -17.61, -26.69, -20.25, -27.98, -24.30, -19.02, -24.86, -23.96, -20.38, 0.000, 0.000, 0.000, 14:57:39.493
22, -29.19, -34.38, -19.47, -28.10, -25.62, -16.47, -26.40, -17.61, -26.53, -20.30, -28.05, -24.36, -19.11, -24.83, -23.65, -20.38, 0.000, 0.000, 0.000, 14:57:39.499
23, -29.26, -34.31, -19.29, -28.05, -25.55, -16.67, -26.31, -17.52, -26.53, -20.30, -28.05, -24.36, -19.11, -24.83, -23.65, -20.38, 0.000, 0.000, 0.000, 14:57:39.499
24, -29.26, -34.31, -19.29, -28.05, -25.55, -16.67, -26.31, -17.52, -26.71, -20.43, -27.74, -24.36, -18.95, -24.90, -23.65, -20.30, 0.000, 0.000, 0.000, 14:57:39.506
25, -29.26, -34.31, -19.40, -27.94, -25.77, -16.32, -26.22, -17.32, -26.71, -20.43, -27.74, -24.36, -18.95, -24.90, -23.65, -20.30, 0.000, 0.000, 0.000, 14:57:39.506
26, -29.26, -34.31, -19.40, -27.94, -25.77, -16.32, -26.22, -17.32, -26.51, -20.30, -27.69, -24.27, -18.78, -24.79, -23.74, -20.47, 0.000, 0.000, 0.000, 14:57:39.512
27, -29.03, -34.53, -19.49, -28.14, -25.75, -16.41, -26.53, -17.48, -26.51, -20.30, -27.69, -24.27, -18.78, -24.79, -23.74, -20.47, 0.000, 0.000, 0.000, 14:57:39.512
28, -29.03, -34.53, -19.49, -28.14, -25.75, -16.41, -26.53, -17.48, -26.58, -20.45, -27.81, -24.32, -18.86, -24.63, -23.72, -20.50, 0.000, 0.000, 0.000, 14:57:39.517
29, -29.30, -34.42, -19.33, -28.21, -25.77, -16.27, -26.33, -17.61, -26.58, -20.45, -27.81, -24.32, -18.86, -24.63, -23.72, -20.50, 0.000, 0.000, 0.000, 14:57:39.517
30, -29.30, -34.42, -19.33, -28.21, -25.77, -16.27, -26.33, -17.61, -26.42, -20.45, -27.87, -24.30, -19.09, -24.86, -23.92, -20.47, -0.106, 0.964, 0.148, 14:57:39.524
31, -29.39, -34.24, -19.47, -28.27, -25.64, -16.38, -26.46, -17.50, -26.42, -20.45, -27.87, -24.30, -19.09, -24.86, -23.92, -20.47, 0.000, 0.000, 0.000, 14:57:39.530
32, -29.39, -34.24, -19.47, -28.27, -25.64, -16.38, -26.46, -17.50, -26.76, -20.52, -27.81, -24.39, -19.20, -24.81, -23.85, -20.23, 0.000, 0.000, 0.000, 14:57:39.530
33, -29.41, -34.31, -19.31, -27.98, -25.64, -16.56, -26.60, -17.64, -26.76, -20.52, -27.81, -24.39, -19.20, -24.81, -23.85, -20.23, 0.000, 0.000, 0.000, 14:57:39.536
34, -29.41, -34.31, -19.31, -27.98, -25.64, -16.56, -26.60, -17.64, -26.51, -20.45, -27.94, -24.39, -19.09, -24.81, -23.63, -20.23, 0.000, 0.000, 0.000, 14:57:39.537
35, -29.46, -34.33, -19.56, -28.07, -25.57, -16.29, -26.40, -17.48, -26.51, -20.45, -27.94, -24.39, -19.09, -24.81, -23.63, -20.23, 0.000, 0.000, 0.000, 14:57:39.543
36, -29.46, -34.33, -19.56, -28.07, -25.57, -16.29, -26.40, -17.48, -26.58, -20.43, -27.89, -24.25, -19.13, -24.72, -23.87, -20.52, 0.000, 0.000, 0.000, 14:57:39.543
37, -29.39, -34.35, -19.42, -27.96, -25.75, -16.34, -26.31, -17.50, -26.58, -20.43, -27.89, -24.25, -19.13, -24.72, -23.87, -20.52, 0.000, 0.000, 0.000, 14:57:39.548
38, -29.39, -34.35, -19.42, -27.96, -25.75, -16.34, -26.31, -17.50, -26.67, -20.59, -27.96, -24.52, -19.00, -24.81, -23.87, -20.47, 0.000, 0.000, 0.000, 14:57:39.548
39, -29.33, -34.29, -19.65, -28.16, -25.82, -16.32, -26.44, -17.26, -26.67, -20.59, -27.96, -24.52, -19.00, -24.81, -23.87, -20.47, 0.000, 0.000, 0.000, 14:57:39.555
40, -29.33, -34.29, -19.65, -28.16, -25.82, -16.32, -26.44, -17.26, -26.53, -20.50, -27.83, -24.34, -19.11, -24.79, -23.78, -20.47, -0.102, 0.968, 0.146, 14:57:39.555
41, -29.17, -34.47, -19.47, -28.01, -25.62, -16.36, -26.35, -17.41, -26.53, -20.50, -27.83, -24.34, -19.11, -24.79, -23.78, -20.47, 0.000, 0.000, 0.000, 14:57:39.561
42, -29.17, -34.47, -19.47, -28.01, -25.62, -16.36, -26.35, -17.41, -26.49, -20.45, -27.74, -24.18, -19.22, -24.70, -24.03, -20.54, 0.000, 0.000, 0.000, 14:57:39.561
43, -29.26, -34.44, -19.36, -28.10, -25.73, -16.43, -26.51, -17.52, -26.49, -20.45, -27.74, -24.18, -19.22, -24.70, -24.03, -20.54, 0.000, 0.000, 0.000, 14:57:39.568
44, -29.26, -34.44, -19.36, -28.10, -25.73, -16.43, -26.51, -17.52, -26.62, -20.54, -27.74, -24.45, -19.13, -24.74, -23.87, -20.36, 0.000, 0.000, 0.000, 14:57:39.568
45, -29.33, -34.38, -19.38, -28.25, -25.79, -16.41, -26.33, -17.34, -26.62, -20.54, -27.74, -24.45, -19.13, -24.74, -23.87, -20.36, 0.000, 0.000, 0.000, 14:57:39.574
46, -29.33, -34.38, -19.38, -28.25, -25.79, -16.41, -26.33, -17.34, -26.42, -20.45, -27.78, -24.43, -18.95, -24.92, -23.80, -20.61, 0.000, 0.000, 0.000, 14:57:39.580
47, -29.41, -34.49, -19.65, -28.16, -25.86, -16.41, -26.40, -17.61, -26.42, -20.45, -27.78, -24.43, -18.95, -24.92, -23.80, -20.61, 0.000, 0.000, 0.000, 14:57:39.580
48, -29.41, -34.49, -19.65, -28.16, -25.86, -16.41, -26.40, -17.61, -26.62, -20.52, -27.83, -24.41, -18.98, -25.10, -23.65, -20.65, 0.000, 0.000, 0.000, 14:57:39.586
49, -29.46, -34.65, -19.60, -28.27, -25.66, -16.32, -26.44, -17.55, -26.62, -20.52, -27.83, -24.41, -18.98, -25.10, -23.65, -20.65, 0.000, 0.000, 0.000, 14:57:39.586
50, -29.46, -34.65, -19.60, -28.27, -25.66, -16.32, -26.44, -17.55, -26.64, -20.61, -27.76, -24.41, -19.09, -24.72, -23.58, -20.38, -0.102, 0.966, 0.144, 14:57:39.592
51, -29.28, -34.27, -19.58, -28.10, -25.55, -16.45, -26.40, -17.37, -26.64, -20.61, -27.76, -24.41, -19.09, -24.72, -23.58, -20.38, 0.000, 0.000, 0.000, 14:57:39.592
52, -29.28, -34.27, -19.58, -28.10, -25.55, -16.45, -26.40, -17.37, -26.42, -20.18, -27.78, -24.27, -19.29, -24.74, -23.63, -20.21, 0.000, 0.000, 0.000, 14:57:39.598
53, -29.30, -34.49, -19.51, -28.12, -25.53, -16.54, -26.29, -17.34, -26.42, -20.18, -27.78, -24.27, -19.29, -24.74, -23.63, -20.21, 0.000, 0.000, 0.000, 14:57:39.598
54, -29.30, -34.49, -19.51, -28.12, -25.53, -16.54, -26.29, -17.34, -26.53, -20.45, -27.72, -24.30, -19.29, -24.68, -23.78, -20.47, 0.000, 0.000, 0.000, 14:57:39.605
55, -29.19, -34.42, -19.69, -28.12, -25.77, -16.52, -26.35, -17.32, -26.53, -20.45, -27.72, -24.30, -19.29, -24.68, -23.78, -20.47, 0.000, 0.000, 0.000, 14:57:39.605
56, -29.19, -34.42, -19.69, -28.12, -25.77, -16.52, -26.35, -17.32, -26.73, -20.47, -27.69, -24.30, -18.98, -24.63, -23.76, -20.50, 0.000, 0.000, 0.000, 14:57:39.611
57, -29.19, -34.49, -19.38, -28.05, -25.70, -16.45, -26.60, -17.21, -26.73, -20.47, -27.69, -24.30, -18.98, -24.63, -23.76, -20.50, 0.000, 0.000, 0.000, 14:57:39.612
58, -29.19, -34.49, -19.38, -28.05, -25.70, -16.45, -26.60, -17.21, -26.58, -20.43, -27.87, -24.27, -18.95, -24.74, -23.69, -20.38, 0.000, 0.000, 0.000, 14:57:39.617
59, -29.30, -34.38, -19.31, -28.10, -25.64, -16.36, -26.51, -17.55, -26.58, -20.43, -27.87, -24.27, -18.95, -24.74, -23.69, -20.38, 0.000, 0.000, 0.000, 14:57:39.617
60, -29.30, -34.38, -19.31, -28.10, -25.64, -16.36, -26.51, -17.55, -26.51, -20.43, -27.78, -24.30, -19.07, -24.72, -23.65, -20.50, -0.098, 0.972, 0.146, 14:57:39.623
61, -29.24, -34.53, -19.42, -28.03, -25.86, -16.47, -26.35, -17.41, -26.51, -20.43, -27.78, -24.30, -19.07, -24.72, -23.65, -20.50, 0.000, 0.000, 0.000, 14:57:39.623
62, -29.24, -34.53, -19.42, -28.03, -25.86, -16.47, -26.35, -17.41, -26.69, -20.25, -27.85, -24.21, -19.09, -24.70, -23.87, -20.36, 0.000, 0.000, 0.000, 14:57:39.630
63, -29.30, -34.49, -19.36, -28.03, -25.77, -16.32, -26.42, -17.41, -26.69, -20.25, -27.85, -24.21, -19.09, -24.70, -23.87, -20.36, 0.000, 0.000, 0.000, 14:57:39.635
64, -29.30, -34.49, -19.36, -28.03, -25.77, -16.32, -26.42, -17.41, -26.71, -20.45, -27.89, -24.21, -19.09, -24.68, -23.78, -20.45, 0.000, 0.000, 0.000, 14:57:39.636
65, -29.37, -34.49, -19.36, -28.14, -25.62, -16.38, -26.51, -17.61, -26.71, -20.45, -27.89, -24.21, -19.09, -24.68, -23.78, -20.45, 0.000, 0.000, 0.000, 14:57:39.642
66, -29.37, -34.49, -19.36, -28.14, -25.62, -16.38, -26.51, -17.61, -26.55, -20.41, -27.67, -24.43, -18.91, -24.81, -23.94, -20.59, 0.000, 0.000, 0.000, 14:57:39.642
67, -29.39, -34.44, -19.40, -27.98, -25.53, -16.27, -26.51, -17.48, -26.55, -20.41, -27.67, -24.43, -18.91, -24.81, -23.94, -20.59, 0.000, 0.000, 0.000, 14:57:39.648
68, -29.39, -34.44, -19.40, -27.98, -25.53, -16.27, -26.51, -17.48, -26.76, -20.47, -28.05, -24.12, -19.09, -24.74, -23.72, -20.47, 0.000, 0.000, 0.000, 14:57:39.649
69, -29.15, -34.49, -19.36, -27.98, -25.41, -16.18, -26.49, -17.55, -26.76, -20.47, -28.05, -24.12, -19.09, -24.74, -23.72, -20.47, 0.000, 0.000, 0.000, 14:57:39.654
70, -29.15, -34.49, -19.36, -27.98, -25.41, -16.18, -26.49, -17.55, -26.60, -20.52, -28.05, -24.32, -19.13, -24.83, -23.89, -20.52, -0.098, 0.966, 0.146, 14:57:39.654
71, -29.06, -34.49, -19.13, -27.87, -25.62, -16.25, -26.31, -17.43, -26.60, -20.52, -28.05, -24.32, -19.13, -24.83, -23.89, -20.52, 0.000, 0.000, 0.000, 14:57:39.660
72, -29.06, -34.49, -19.13, -27.87, -25.62, -16.25, -26.31, -17.43, -26.58, -20.47, -27.92, -24.36, -19.11, -24.72, -23.78, -20.47, 0.000, 0.000, 0.000, 14:57:39.661
73, -29.26, -34.29, -19.31, -28.07, -25.66, -16.41, -26.51, -17.30, -26.58, -20.47, -27.92, -24.36, -19.11, -24.72, -23.78, -20.47, 0.000, 0.000, 0.000, 14:57:39.667
74, -29.26, -34.29, -19.31, -28.07, -25.66, -16.41, -26.51, -17.30, -26.46, -20.36, -27.81, -24.23, -19.02, -24.68, -23.72, -20.59, 0.000, 0.000, 0.000, 14:57:39.667
75, -29.35, -34.49, -19.54, -28.14, -25.39, -16.52, -26.35, -17.26, -26.46, -20.36, -27.81, -24.23, -19.02, -24.68, -23.72, -20.59, 0.000, 0.000, 0.000, 14:57:39.674
76, -29.35, -34.49, -19.54, -28.14, -25.39, -16.52, -26.35, -17.26, -26.69, -20.32, -27.72, -24.48, -19.04, -24.61, -23.56, -20.32, 0.000, 0.000, 0.000, 14:57:39.674
77, -29.50, -34.18, -19.38, -27.98, -25.70, -16.43, -26.46, -17.64, -26.69, -20.32, -27.72, -24.48, -19.04, -24.61, -23.56, -20.32, 0.000, 0.000, 0.000, 14:57:39.679
78, -29.50, -34.18, -19.38, -27.98, -25.70, -16.43, -26.46, -17.64, -26.44, -20.54, -27.76, -24.16, -18.95, -24.52, -23.74, -20.41, 0.000, 0.000, 0.000, 14:57:39.685
79, -29.48, -34.31, -19.45, -27.92, -25.75, -16.47, -26.46, -17.57, -26.44, -20.54, -27.76, -24.16, -18.95, -24.52, -23.74, -20.41, 0.000, 0.000, 0.000, 14:57:39.686
80, -29.48, -34.31, -19.45, -27.92, -25.75, -16.47, -26.46, -17.57, -26.46, -20.70, -27.96, -24.27, -18.80, -24.81, -23.76, -20.34, -0.100, 0.966, 0.144, 14:57:39.692
81, -29.24, -34.15, -19.31, -28.01, -25.73, -16.23, -26.31, -17.37, -26.46, -20.70, -27.96, -24.27, -18.80, -24.81, -23.76, -20.34, 0.000, 0.000, 0.000, 14:57:39.693
82, -29.24, -34.15, -19.31, -28.01, -25.73, -16.23, -26.31, -17.37, -26.51, -20.36, -27.76, -24.16, -19.13, -24.79, -23.80, -20.45, 0.000, 0.000, 0.000, 14:57:39.698
83, -29.19, -34.13, -19.42, -28.05, -25.59, -16.41, -26.42, -17.55, -26.51, -20.36, -27.76, -24.16, -19.13, -24.79, -23.80, -20.45, 0.000, 0.000, 0.000, 14:57:39.698
84, -29.19, -34.13, -19.42, -28.05, -25.59, -16.41, -26.42, -17.55, -26.42, -20.47, -27.87, -24.18, -19.36, -24.77, -23.76, -20.34, 0.000, 0.000, 0.000, 14:57:39.705
85, -29.28, -34.44, -19.49, -28.14, -25.53, -16.27, -26.31, -17.41, -26.42, -20.47, -27.87, -24.18, -19.36, -24.77, -23.76, -20.34, 0.000, 0.000, 0.000, 14:57:39.705
86, -29.28, -34.44, -19.49, -28.14, -25.53, -16.27, -26.31, -17.41, -26.55, -20.43, -27.87, -24.43, -19.11, -24.65, -23.56, -20.38, 0.000, 0.000, 0.000, 14:57:39.711
87, -29.28, -34.47, -19.49, -28.10, -25.66, -16.34, -26.44, -17.28, -26.55, -20.43, -27.87, -24.43, -19.11, -24.65, -23.56, -20.38, 0.000, 0.000, 0.000, 14:57:39.711
88, -29.28, -34.47, -19.49, -28.10, -25.66, -16.34, -26.44, -17.28, -26.42, -20.54, -27.83, -24.45, -19.02, -24.79, -23.72, -20.52, 0.000, 0.000, 0.000, 14:57:39.718
89, -29.35, -34.29, -19.45, -27.92, -25.73, -16.18, -26.40, -17.30, -26.42, -20.54, -27.83, -24.45, -19.02, -24.79, -23.72, -20.52, 0.000, 0.000, 0.000, 14:57:39.718
90, -29.35, -34.29, -19.45, -27.92, -25.73, -16.18, -26.40, -17.30, -26.84, -20.54, -27.74, -24.25, -19.02, -24.88, -23.49, -20.47, -0.102, 0.972, 0.150, 14:57:39.724
91, -29.35, -34.42, -19.22, -28.12, -25.91, -16.23, -26.55, -17.37, -26.84, -20.54, -27.74, -24.25, -19.02, -24.88, -23.49, -20.47, 0.000, 0.000, 0.000, 14:57:39.724
92, -29.35, -34.42, -19.22, -28.12, -25.91, -16.23, -26.55, -17.37, -26.60, -20.63, -27.81, -24.10, -18.95, -24.92, -23.56, -20.45, 0.000, 0.000, 0.000, 14:57:39.730
93, -29.33, -34.51, -19.38, -27.87, -25.68, -16.21, -26.31, -17.61, -26.60, -20.63, -27.81, -24.10, -18.95, -24.92, -23.56, -20.45, 0.000, 0.000, 0.000, 14:57:39.744
94, -29.33, -34.51, -19.38, -27.87, -25.68, -16.21, -26.31, -17.61, -26.51, -20.54, -27.78, -24.56, -18.86, -24.70, -23.80, -20.54, 0.000, 0.000, 0.000, 14:57:39.744
95, -29.10, -34.35, -19.36, -28.01, -25.77, -16.16, -26.42, -17.39, -26.51, -20.54, -27.78, -24.56, -18.86, -24.70, -23.80, -20.54, 0.000, 0.000, 0.000, 14:57:39.753
96, -29.10, -34.35, -19.36, -28.01, -25.77, -16.16, -26.42, -17.39, -26.67, -20.54, -27.98, -24.36, -18.91, -24.88, -23.80, -20.41, 0.000, 0.000, 0.000, 14:57:39.754
97, -29.15, -34.38, -19.49, -27.96, -25.62, -16.45, -26.33, -17.30, -26.67, -20.54, -27.98, -24.36, -18.91, -24.88, -23.80, -20.41, 0.000, 0.000, 0.000, 14:57:39.760
98, -29.15, -34.38, -19.49, -27.96, -25.62, -16.45, -26.33, -17.30, -26.44, -20.54, -27.94, -24.34, -18.89, -24.83, -23.94, -20.32, 0.000, 0.000, 0.000, 14:57:39.760
99, -29.37, -34.44, -19.42, -28.21, -25.68, -16.47, -26.49, -17.59, -26.44, -20.54, -27.94, -24.34, -18.89, -24.83, -23.94, -20.32, 0.000, 0.000, 0.000, 14:57:39.769
100, -29.37, -34.44, -19.42, -28.21, -25.68, -16.47, -26.49, -17.59, -26.51, -20.68, -27.85, -24.39, -19.00, -24.81, -23.76, -20.43, -0.098, 0.970, 0.144, 14:57:39.769
101, -29.08, -34.13, -19.42, -28.19, -25.73, -16.41, -26.42, -17.37, -26.51, -20.68, -27.85, -24.39, -19.00, -24.81, -23.76, -20.43, 0.000, 0.000, 0.000, 14:57:39.775
102, -29.08, -34.13, -19.42, -28.19, -25.73, -16.41, -26.42, -17.37, -26.58, -20.56, -27.96, -24.27, -19.07, -24.72, -23.87, -20.54, 0.000, 0.000, 0.000, 14:57:39.775
103, -29.24, -34.33, -19.38, -28.05, -25.66, -16.47, -26.60, -17.52, -26.58, -20.56, -27.96, -24.27, -19.07, -24.72, -23.87, -20.54, 0.000, 0.000, 0.000, 14:57:39.791
104, -29.24, -34.33, -19.38, -28.05, -25.66, -16.47, -26.60, -17.52, -26.71, -20.63, -27.85, -24.39, -19.04, -24.59, -23.67, -20.54, 0.000, 0.000, 0.000, 14:57:39.791
105, -29.17, -34.51, -19.16, -28.14, -25.68, -16.50, -26.49, -17.46, -26.71, -20.63, -27.85, -24.39, -19.04, -24.59, -23.67, -20.54, 0.000, 0.000, 0.000, 14:57:39.814
106, -29.17, -34.51, -19.16, -28.14, -25.68, -16.50, -26.49, -17.46, -26.51, -20.30, -27.78, -24.54, -18.91, -24.70, -23.56, -20.43, 0.000, 0.000, 0.000, 14:57:39.821
107, -29.33, -34.44, -19.20, -28.05, -25.57, -16.23, -26.35, -17.48, -26.51, -20.30, -27.78, -24.54, -18.91, -24.70, -23.56, -20.43, 0.000, 0.000, 0.000, 14:57:39.821
108, -29.33, -34.44, -19.20, -28.05, -25.57, -16.23, -26.35, -17.48, -26.51, -20.36, -27.72, -24.61, -18.95, -24.54, -23.60, -20.36, 0.000, 0.000, 0.000, 14:57:39.827
109, -29.21, -34.40, -19.54, -28.07, -25.62, -16.29, -26.40, -17.37, -26.51, -20.36, -27.72, -24.61, -18.95, -24.54, -23.60, -20.36, 0.000, 0.000, 0.000, 14:57:39.828
110, -29.21, -34.40, -19.54, -28.07, -25.62, -16.29, -26.40, -17.37, -26.58, -20.41, -27.74, -24.52, -18.89, -24.72, -23.69, -20.34, -0.096, 0.974, 0.150, 14:57:39.835
111, -29.08, -34.44, -19.24, -28.10, -25.68, -16.36, -26.51, -17.39, -26.58, -20.41, -27.74, -24.52, -18.89, -24.72, -23.69, -20.34, 0.000, 0.000, 0.000, 14:57:39.835
112, -29.08, -34.44, -19.24, -28.10, -25.68, -16.36, -26.51, -17.39, -26.49, -20.43, -27.85, -24.41, -18.95, -24.61, -23.76, -20.23, 0.000, 0.000, 0.000, 14:57:39.841
113, -29.15, -34.13, -19.33, -28.03, -25.55, -16.43, -26.42, -17.43, -26.49, -20.43, -27.85, -24.41, -18.95, -24.61, -23.76, -20.23, 0.000, 0.000, 0.000, 14:57:39.841
115, -29.15, -34.47, -19.31, -28.14, -25.68, -16.38, -26.42, -17.23, -26.49, -20.43, -27.85, -24.41, -18.95, -24.61, -23.76, -20.23, 0.000, 0.000, 0.000, 14:57:39.847
116, -29.15, -34.47, -19.31, -28.14, -25.68, -16.38, -26.42, -17.23, -26.58, -20.50, -27.85, -24.34, -18.84, -24.72, -23.72, -20.43, 0.000, 0.000, 0.000, 14:57:39.847
117, -29.30, -34.33, -19.51, -28.16, -25.64, -16.45, -26.38, -17.43, -26.58, -20.50, -27.85, -24.34, -18.84, -24.72, -23.72, -20.43, 0.000, 0.000, 0.000, 14:57:39.854
118, -29.30, -34.33, -19.51, -28.16, -25.64, -16.45, -26.38, -17.43, -26.69, -20.50, -27.96, -24.16, -19.16, -24.83, -23.63, -20.45, 0.000, 0.000, 0.000, 14:57:39.854
119, -29.01, -34.35, -19.47, -28.21, -25.57, -16.38, -26.11, -17.28, -26.69, -20.50, -27.96, -24.16, -19.16, -24.83, -23.63, -20.45, 0.000, 0.000, 0.000, 14:57:39.860
120, -29.01, -34.35, -19.47, -28.21, -25.57, -16.38, -26.11, -17.28, -26.71, -20.56, -27.83, -24.30, -18.93, -24.65, -23.78, -20.38, -0.098, 0.974, 0.154, 14:57:39.861
121, -29.08, -34.44, -19.40, -28.01, -25.64, -16.25, -26.58, -17.48, -26.71, -20.56, -27.83, -24.30, -18.93, -24.65, -23.78, -20.38, 0.000, 0.000, 0.000, 14:57:39.866
122, -29.08, -34.44, -19.40, -28.01, -25.64, -16.25, -26.58, -17.48, -26.35, -20.45, -28.01, -24.48, -19.11, -24.81, -23.85, -20.23, 0.000, 0.000, 0.000, 14:57:39.872
123, -29.06, -34.40, -19.24, -28.12, -25.66, -16.18, -26.44, -17.59, -26.35, -20.45, -28.01, -24.48, -19.11, -24.81, -23.85, -20.23, 0.000, 0.000, 0.000, 14:57:39.873
124, -29.06, -34.40, -19.24, -28.12, -25.66, -16.18, -26.44, -17.59, -26.69, -20.65, -27.65, -24.39, -18.89, -24.79, -23.80, -20.65, 0.000, 0.000, 0.000, 14:57:39.878
125, -29.37, -34.42, -19.24, -28.10, -25.73, -16.25, -26.20, -17.50, -26.69, -20.65, -27.65, -24.39, -18.89, -24.79, -23.80, -20.65, 0.000, 0.000, 0.000, 14:57:39.878
126, -29.37, -34.42, -19.24, -28.10, -25.73, -16.25, -26.20, -17.50, -26.62, -20.54, -27.69, -24.59, -19.16, -24.81, -23.78, -20.43, 0.000, 0.000, 0.000, 14:57:39.884
127, -29.33, -34.35, -19.40, -28.07, -25.70, -16.41, -26.26, -17.43, -26.62, -20.54, -27.69, -24.59, -19.16, -24.81, -23.78, -20.43, 0.000, 0.000, 0.000, 14:57:39.884
128, -29.33, -34.35, -19.40, -28.07, -25.70, -16.41, -26.26, -17.43, -26.38, -20.43, -27.94, -24.41, -18.95, -24.63, -23.65, -20.45, 0.000, 0.000, 0.000, 14:57:39.891
129, -29.41, -34.33, -19.36, -28.16, -25.59, -16.34, -26.55, -17.46, -26.38, -20.43, -27.94, -24.41, -18.95, -24.63, -23.65, -20.45, 0.000, 0.000, 0.000, 14:57:39.891
130, -29.41, -34.33, -19.36, -28.16, -25.59, -16.34, -26.55, -17.46, -26.49, -20.23, -27.65, -24.45, -18.89, -24.77, -23.80, -20.34, -0.102, 0.964, 0.152, 14:57:39.897
131, -29.21, -34.56, -19.49, -28.12, -25.70, -16.34, -26.49, -17.43, -26.49, -20.23, -27.65, -24.45, -18.89, -24.77, -23.80, -20.34, 0.000, 0.000, 0.000, 14:57:39.897
132, -29.21, -34.56, -19.49, -28.12, -25.70, -16.34, -26.49, -17.43, -26.73, -20.45, -27.81, -24.48, -19.18, -24.86, -23.98, -20.45, 0.000, 0.000, 0.000, 14:57:39.904
133, -29.48, -34.38, -19.49, -28.07, -25.84, -16.41, -26.33, -17.32, -26.73, -20.45, -27.81, -24.48, -19.18, -24.86, -23.98, -20.45, 0.000, 0.000, 0.000, 14:57:39.904
134, -29.48, -34.38, -19.49, -28.07, -25.84, -16.41, -26.33, -17.32, -26.40, -20.63, -27.60, -24.36, -19.20, -24.90, -23.83, -20.54, 0.000, 0.000, 0.000, 14:57:39.911
135, -29.35, -34.44, -19.38, -28.30, -25.82, -16.47, -26.55, -17.66, -26.40, -20.63, -27.60, -24.36, -19.20, -24.90, -23.83, -20.54, 0.000, 0.000, 0.000, 14:57:39.911
136, -29.35, -34.44, -19.38, -28.30, -25.82, -16.47, -26.55, -17.66, -26.67, -20.43, -27.85, -24.52, -19.13, -24.56, -23.69, -20.30, 0.000, 0.000, 0.000, 14:57:39.916
137, -29.17, -34.33, -19.54, -28.10, -25.88, -16.38, -26.55, -17.46, -26.67, -20.43, -27.85, -24.52, -19.13, -24.56, -23.69, -20.30, 0.000, 0.000, 0.000, 14:57:39.922
138, -29.17, -34.33, -19.54, -28.10, -25.88, -16.38, -26.55, -17.46, -26.58, -20.70, -27.74, -24.25, -19.04, -24.74, -23.94, -20.54, 0.000, 0.000, 0.000, 14:57:39.922
139, -29.30, -34.38, -19.40, -28.14, -25.75, -16.27, -26.29, -17.46, -26.58, -20.70, -27.74, -24.25, -19.04, -24.74, -23.94, -20.54, 0.000, 0.000, 0.000, 14:57:39.929
140, -29.30, -34.38, -19.40, -28.14, -25.75, -16.27, -26.29, -17.46, -26.73, -20.50, -27.78, -24.12, -18.98, -24.97, -23.96, -20.61, -0.098, 0.970, 0.152, 14:57:39.929
141, -29.39, -34.24, -19.49, -28.25, -25.59, -16.63, -26.51, -17.50, -26.73, -20.50, -27.78, -24.12, -18.98, -24.97, -23.96, -20.61, 0.000, 0.000, 0.000, 14:57:39.935
142, -29.39, -34.24, -19.49, -28.25, -25.59, -16.63, -26.51, -17.50, -26.62, -20.45, -28.01, -24.32, -19.04, -24.88, -23.74, -20.41, 0.000, 0.000, 0.000, 14:57:39.935
143, -29.48, -34.38, -19.58, -28.10, -25.79, -16.34, -26.51, -17.34, -26.62, -20.45, -28.01, -24.32, -19.04, -24.88, -23.74, -20.41, 0.000, 0.000, 0.000, 14:57:39.941
144, -29.48, -34.38, -19.58, -28.10, -25.79, -16.34, -26.51, -17.34, -26.44, -20.70, -27.67, -24.21, -18.78, -24.92, -23.69, -20.43, 0.000, 0.000, 0.000, 14:57:39.941
145, -29.12, -34.31, -19.36, -28.16, -25.59, -16.36, -26.24, -17.46, -26.44, -20.70, -27.67, -24.21, -18.78, -24.92, -23.69, -20.43, 0.000, 0.000, 0.000, 14:57:39.947
146, -29.12, -34.31, -19.36, -28.16, -25.59, -16.36, -26.24, -17.46, -26.33, -20.25, -27.74, -24.30, -19.11, -24.88, -23.56, -20.63, 0.000, 0.000, 0.000, 14:57:39.947
147, -29.21, -34.31, -19.36, -27.89, -25.59, -16.36, -26.38, -17.30, -26.33, -20.25, -27.74, -24.30, -19.11, -24.88, -23.56, -20.63, 0.000, 0.000, 0.000, 14:57:39.954
148, -29.21, -34.31, -19.36, -27.89, -25.59, -16.36, -26.38, -17.30, -26.33, -20.47, -28.01, -24.34, -19.00, -24.74, -23.92, -20.32, 0.000, 0.000, 0.000, 14:57:39.954
149, -29.35, -34.20, -19.51, -28.05, -25.79, -16.38, -26.44, -17.41, -26.33, -20.47, -28.01, -24.34, -19.00, -24.74, -23.92, -20.32, 0.000, 0.000, 0.000, 14:57:39.959
150, -29.35, -34.20, -19.51, -28.05, -25.79, -16.38, -26.44, -17.41, -26.38, -20.65, -27.65, -24.25, -19.02, -24.86, -23.83, -20.23, -0.102, 0.968, 0.148, 14:57:39.960
151, -29.30, -34.35, -19.47, -27.94, -25.70, -16.27, -26.26, -17.55, -26.38, -20.65, -27.65, -24.25, -19.02, -24.86, -23.83, -20.23, 0.000, 0.000, 0.000, 14:57:39.966
152, -29.30, -34.35, -19.47, -27.94, -25.70, -16.27, -26.26, -17.55, -26.60, -20.52, -27.65, -24.41, -19.29, -24.79, -23.60, -20.47, 0.000, 0.000, 0.000, 14:57:39.973
153, -29.15, -34.51, -19.38, -27.98, -25.75, -16.27, -26.35, -17.55, -26.60, -20.52, -27.65, -24.41, -19.29, -24.79, -23.60, -20.47, 0.000, 0.000, 0.000, 14:57:39.973
154, -29.15, -34.51, -19.38, -27.98, -25.75, -16.27, -26.35, -17.55, -26.49, -20.38, -27.85, -24.43, -19.00, -24.68, -23.96, -20.38, 0.000, 0.000, 0.000, 14:57:39.982
155, -29.26, -34.53, -19.54, -28.05, -25.68, -16.36, -26.22, -17.50, -26.49, -20.38, -27.85, -24.43, -19.00, -24.68, -23.96, -20.38, 0.000, 0.000, 0.000, 14:57:39.982
156, -29.26, -34.53, -19.54, -28.05, -25.68, -16.36, -26.22, -17.50, -26.53, -20.70, -27.83, -24.39, -19.04, -24.90, -23.83, -20.47, 0.000, 0.000, 0.000, 14:57:39.989
157, -29.12, -34.35, -19.60, -28.14, -25.70, -16.41, -26.40, -17.30, -26.53, -20.70, -27.83, -24.39, -19.04, -24.90, -23.83, -20.47, 0.000, 0.000, 0.000, 14:57:39.989
158, -29.12, -34.35, -19.60, -28.14, -25.70, -16.41, -26.40, -17.30, -26.55, -20.79, -27.94, -24.23, -19.00, -24.86, -23.83, -20.54, 0.000, 0.000, 0.000, 14:57:39.999
159, -29.21, -34.60, -19.56, -28.12, -25.86, -16.45, -26.38, -17.50, -26.55, -20.79, -27.94, -24.23, -19.00, -24.86, -23.83, -20.54, 0.000, 0.000, 0.000, 14:57:39.999
160, -29.21, -34.60, -19.56, -28.12, -25.86, -16.45, -26.38, -17.50, -26.46, -20.50, -27.92, -24.30, -18.98, -24.83, -23.72, -20.63, -0.108, 0.972, 0.146, 14:57:40.004
161, -29.24, -34.27, -19.56, -28.32, -25.68, -16.36, -26.44, -17.48, -26.46, -20.50, -27.92, -24.30, -18.98, -24.83, -23.72, -20.63, 0.000, 0.000, 0.000, 14:57:40.004
162, -29.24, -34.27, -19.56, -28.32, -25.68, -16.36, -26.44, -17.48, -26.55, -20.41, -27.89, -24.30, -19.07, -24.63, -23.85, -20.52, 0.000, 0.000, 0.000, 14:57:40.011
163, -29.28, -34.27, -19.47, -28.07, -25.50, -16.27, -26.35, -17.61, -26.55, -20.41, -27.89, -24.30, -19.07, -24.63, -23.85, -20.52, 0.000, 0.000, 0.000, 14:57:40.012
164, -29.28, -34.27, -19.47, -28.07, -25.50, -16.27, -26.35, -17.61, -26.40, -20.56, -27.92, -24.41, -18.93, -24.90, -23.60, -20.27, 0.000, 0.000, 0.000, 14:57:40.019
165, -29.37, -34.33, -19.54, -28.19, -25.53, -16.29, -26.40, -17.52, -26.40, -20.56, -27.92, -24.41, -18.93, -24.90, -23.60, -20.27, 0.000, 0.000, 0.000, 14:57:40.019
166, -29.37, -34.33, -19.54, -28.19, -25.53, -16.29, -26.40, -17.52, -26.46, -20.43, -27.89, -24.27, -19.13, -25.12, -23.76, -20.25, 0.000, 0.000, 0.000, 14:57:40.026
167, -29.50, -34.02, -19.47, -28.21, -25.68, -16.32, -26.53, -17.41, -26.46, -20.43, -27.89, -24.27, -19.13, -25.12, -23.76, -20.25, 0.000, 0.000, 0.000, 14:57:40.026
168, -29.50, -34.02, -19.47, -28.21, -25.68, -16.32, -26.53, -17.41, -26.82, -20.43, -27.92, -24.30, -19.18, -24.86, -23.96, -20.47, 0.000, 0.000, 0.000, 14:57:40.037
169, -29.41, -34.40, -19.31, -28.12, -25.88, -16.50, -26.42, -17.43, -26.82, -20.43, -27.92, -24.30, -19.18, -24.86, -23.96, -20.47, 0.000, 0.000, 0.000, 14:57:40.045
170, -29.41, -34.40, -19.31, -28.12, -25.88, -16.50, -26.42, -17.43, -26.71, -20.54, -27.78, -24.25, -19.07, -24.79, -23.78, -20.54, -0.112, 0.964, 0.144, 14:57:40.046
171, -29.33, -34.53, -19.38, -28.01, -25.64, -16.36, -26.26, -17.43, -26.71, -20.54, -27.78, -24.25, -19.07, -24.79, -23.78, -20.54, 0.000, 0.000, 0.000, 14:57:40.052
172, -29.33, -34.53, -19.38, -28.01, -25.64, -16.36, -26.26, -17.43, -26.62, -20.68, -27.96, -24.43, -18.95, -24.88, -23.76, -20.54, 0.000, 0.000, 0.000, 14:57:40.052
173, -29.30, -34.40, -19.29, -28.16, -25.77, -16.21, -26.44, -17.34, -26.62, -20.68, -27.96, -24.43, -18.95, -24.88, -23.76, -20.54, 0.000, 0.000, 0.000, 14:57:40.059
174, -29.30, -34.40, -19.29, -28.16, -25.77, -16.21, -26.44, -17.34, -26.67, -20.54, -27.83, -24.43, -19.11, -24.88, -23.72, -20.36, 0.000, 0.000, 0.000, 14:57:40.059
175, -29.17, -34.42, -19.31, -28.25, -25.59, -16.36, -26.46, -17.19, -26.67, -20.54, -27.83, -24.43, -19.11, -24.88, -23.72, -20.36, 0.000, 0.000, 0.000, 14:57:40.065
176, -29.17, -34.42, -19.31, -28.25, -25.59, -16.36, -26.46, -17.19, -26.60, -20.45, -28.01, -24.27, -18.89, -24.68, -23.67, -20.36, 0.000, 0.000, 0.000, 14:57:40.065
177, -29.28, -34.47, -19.24, -28.23, -25.53, -16.47, -26.55, -17.41, -26.60, -20.45, -28.01, -24.27, -18.89, -24.68, -23.67, -20.36, 0.000, 0.000, 0.000, 14:57:40.072
178, -29.28, -34.47, -19.24, -28.23, -25.53, -16.47, -26.55, -17.41, -26.64, -20.36, -27.85, -24.43, -18.98, -24.83, -23.74, -20.43, 0.000, 0.000, 0.000, 14:57:40.072
179, -29.30, -34.44, -19.45, -27.83, -25.70, -16.45, -26.46, -17.77, -26.64, -20.36, -27.85, -24.43, -18.98, -24.83, -23.74, -20.43, 0.000, 0.000, 0.000, 14:57:40.079
180, -29.30, -34.44, -19.45, -27.83, -25.70, -16.45, -26.46, -17.77, -26.58, -20.41, -27.87, -24.39, -19.04, -24.83, -23.78, -20.43, -0.106, 0.966, 0.146, 14:57:40.080
181, -29.21, -34.27, -19.29, -28.30, -25.75, -16.34, -26.53, -17.41, -26.58, -20.41, -27.87, -24.39, -19.04, -24.83, -23.78, -20.43, 0.000, 0.000, 0.000, 14:57:40.086
182, -29.21, -34.27, -19.29, -28.30, -25.75, -16.34, -26.53, -17.41, -26.62, -20.50, -27.83, -24.56, -19.02, -24.68, -23.69, -20.25, 0.000, 0.000, 0.000, 14:57:40.086
183, -29.19, -34.44, -19.56, -28.01, -25.68, -16.65, -26.13, -17.32, -26.62, -20.50, -27.83, -24.56, -19.02, -24.68, -23.69, -20.25, 0.000, 0.000, 0.000, 14:57:40.093
184, -29.19, -34.44, -19.56, -28.01, -25.68, -16.65, -26.13, -17.32, -26.38, -20.45, -27.76, -24.65, -19.16, -24.81, -23.87, -20.36, 0.000, 0.000, 0.000, 14:57:40.101
185, -29.28, -34.35, -19.69, -28.12, -25.55, -16.34, -26.67, -17.28, -26.38, -20.45, -27.76, -24.65, -19.16, -24.81, -23.87, -20.36, 0.000, 0.000, 0.000, 14:57:40.101
186, -29.28, -34.35, -19.69, -28.12, -25.55, -16.34, -26.67, -17.28, -26.51, -20.41, -27.85, -24.36, -19.11, -24.79, -23.78, -20.43, 0.000, 0.000, 0.000, 14:57:40.108
187, -29.21, -34.40, -19.60, -28.03, -25.77, -16.38, -26.40, -17.41, -26.51, -20.41, -27.85, -24.36, -19.11, -24.79, -23.78, -20.43, 0.000, 0.000, 0.000, 14:57:40.108
188, -29.21, -34.40, -19.60, -28.03, -25.77, -16.38, -26.40, -17.41, -26.76, -20.38, -27.72, -24.52, -19.02, -24.83, -23.63, -20.47, 0.000, 0.000, 0.000, 14:57:40.116
189, -29.26, -34.27, -19.33, -28.12, -25.70, -16.47, -26.15, -17.55, -26.76, -20.38, -27.72, -24.52, -19.02, -24.83, -23.63, -20.47, 0.000, 0.000, 0.000, 14:57:40.116
190, -29.26, -34.27, -19.33, -28.12, -25.70, -16.47, -26.15, -17.55, -26.67, -20.61, -27.94, -24.39, -19.07, -24.81, -23.87, -20.61, -0.110, 0.968, 0.150, 14:57:40.124
191, -29.01, -34.44, -19.31, -28.16, -25.68, -16.50, -26.26, -17.57, -26.67, -20.61, -27.94, -24.39, -19.07, -24.81, -23.87, -20.61, 0.000, 0.000, 0.000, 14:57:40.124
192, -29.01, -34.44, -19.31, -28.16, -25.68, -16.50, -26.26, -17.57, -26.31, -20.27, -27.83, -24.56, -19.11, -24.88, -23.83, -20.61, 0.000, 0.000, 0.000, 14:57:40.132
193, -29.21, -34.33, -19.36, -28.03, -25.73, -16.56, -26.58, -17.64, -26.31, -20.27, -27.83, -24.56, -19.11, -24.88, -23.83, -20.61, 0.000, 0.000, 0.000, 14:57:40.132
194, -29.21, -34.33, -19.36, -28.03, -25.73, -16.56, -26.58, -17.64, -26.60, -20.41, -27.65, -24.30, -19.07, -24.90, -23.89, -20.45, 0.000, 0.000, 0.000, 14:57:40.141
195, -29.21, -34.60, -19.54, -28.16, -25.57, -16.54, -26.40, -17.48, -26.60, -20.41, -27.65, -24.30, -19.07, -24.90, -23.89, -20.45, 0.000, 0.000, 0.000, 14:57:40.141
196, -29.21, -34.60, -19.54, -28.16, -25.57, -16.54, -26.40, -17.48, -26.80, -20.36, -27.65, -24.21, -18.98, -24.77, -24.01, -20.38, 0.000, 0.000, 0.000, 14:57:40.155
197, -29.39, -34.29, -19.27, -28.25, -25.84, -16.32, -26.44, -17.34, -26.80, -20.36, -27.65, -24.21, -18.98, -24.77, -24.01, -20.38, 0.000, 0.000, 0.000, 14:57:40.156
198, -29.39, -34.29, -19.27, -28.25, -25.84, -16.32, -26.44, -17.34, -26.71, -20.63, -27.76, -24.14, -19.04, -25.01, -23.80, -20.76, 0.000, 0.000, 0.000, 14:57:40.188
199, -29.28, -34.51, -19.29, -28.16, -25.75, -16.32, -26.31, -17.55, -26.71, -20.63, -27.76, -24.14, -19.04, -25.01, -23.80, -20.76, 0.000, 0.000, 0.000, 14:57:40.196
200, -29.28, -34.51, -19.29, -28.16, -25.75, -16.32, -26.31, -17.55, -26.44, -20.59, -27.81, -24.18, -18.95, -24.68, -23.89, -20.54, -0.102, 0.968, 0.148, 14:57:40.196
201, -29.24, -34.33, -19.47, -28.05, -25.66, -16.29, -26.44, -17.57, -26.44, -20.59, -27.81, -24.18, -18.95, -24.68, -23.89, -20.54, 0.000, 0.000, 0.000, 14:57:40.203
202, -29.24, -34.33, -19.47, -28.05, -25.66, -16.29, -26.44, -17.57, -26.69, -20.65, -27.63, -24.45, -19.02, -24.79, -23.74, -20.27, 0.000, 0.000, 0.000, 14:57:40.203
203, -29.26, -34.51, -19.51, -28.16, -25.64, -16.25, -26.31, -17.43, -26.69, -20.65, -27.63, -24.45, -19.02, -24.79, -23.74, -20.27, 0.000, 0.000, 0.000, 14:57:40.208
204, -29.26, -34.51, -19.51, -28.16, -25.64, -16.25, -26.31, -17.43, -26.60, -20.52, -27.83, -24.30, -18.84, -24.86, -23.89, -20.23, 0.000, 0.000, 0.000, 14:57:40.208
205, -29.21, -34.40, -19.42, -28.14, -25.75, -16.25, -26.49, -17.55, -26.60, -20.52, -27.83, -24.30, -18.84, -24.86, -23.89, -20.23, 0.000, 0.000, 0.000, 14:57:40.224
206, -29.21, -34.40, -19.42, -28.14, -25.75, -16.25, -26.49, -17.55, -26.49, -20.38, -27.74, -24.14, -18.95, -24.94, -23.76, -20.36, 0.000, 0.000, 0.000, 14:57:40.240
208, -29.21, -34.40, -19.42, -28.14, -25.75, -16.25, -26.49, -17.55, -26.60, -20.47, -27.76, -24.30, -19.00, -24.81, -23.58, -20.32, 0.000, 0.000, 0.000, 14:57:40.247
209, -29.24, -34.40, -19.36, -28.05, -25.57, -16.58, -26.42, -17.46, -26.60, -20.47, -27.76, -24.30, -19.00, -24.81, -23.58, -20.32, 0.000, 0.000, 0.000, 14:57:40.247
210, -29.24, -34.40, -19.36, -28.05, -25.57, -16.58, -26.42, -17.46, -26.55, -20.50, -27.76, -24.48, -19.13, -24.86, -23.78, -20.36, -0.102, 0.974, 0.154, 14:57:40.253
211, -29.21, -34.67, -19.33, -28.10, -25.73, -16.34, -26.42, -17.32, -26.55, -20.50, -27.76, -24.48, -19.13, -24.86, -23.78, -20.36, 0.000, 0.000, 0.000, 14:57:40.253
212, -29.21, -34.67, -19.33, -28.10, -25.73, -16.34, -26.42, -17.32, -26.51, -20.56, -27.96, -24.68, -19.04, -24.86, -23.76, -20.27, 0.000, 0.000, 0.000, 14:57:40.260
213, -29.30, -34.24, -19.31, -28.07, -25.64, -16.43, -26.38, -17.43, -26.51, -20.56, -27.96, -24.68, -19.04, -24.86, -23.76, -20.27, 0.000, 0.000, 0.000, 14:57:40.260
214, -29.30, -34.24, -19.31, -28.07, -25.64, -16.43, -26.38, -17.43, -26.58, -20.54, -27.89, -24.39, -19.09, -24.94, -23.63, -20.36, 0.000, 0.000, 0.000, 14:57:40.266
215, -29.39, -34.47, -19.40, -28.03, -25.86, -16.45, -26.44, -17.34, -26.58, -20.54, -27.89, -24.39, -19.09, -24.94, -23.63, -20.36, 0.000, 0.000, 0.000, 14:57:40.273
216, -29.39, -34.47, -19.40, -28.03, -25.86, -16.45, -26.44, -17.34, -26.76, -20.32, -27.78, -24.16, -19.04, -24.72, -23.89, -20.30, 0.000, 0.000, 0.000, 14:57:40.273
217, -29.41, -34.22, -19.27, -28.10, -25.79, -16.34, -26.46, -17.52, -26.76, -20.32, -27.78, -24.16, -19.04, -24.72, -23.89, -20.30, 0.000, 0.000, 0.000, 14:57:40.279
218, -29.41, -34.22, -19.27, -28.10, -25.79, -16.34, -26.46, -17.52, -26.69, -20.52, -27.83, -24.63, -19.02, -24.88, -23.89, -20.21, 0.000, 0.000, 0.000, 14:57:40.280
219, -29.28, -34.27, -19.42, -28.32, -25.62, -16.32, -26.26, -17.32, -26.69, -20.52, -27.83, -24.63, -19.02, -24.88, -23.89, -20.21, 0.000, 0.000, 0.000, 14:57:40.285
220, -29.28, -34.27, -19.42, -28.32, -25.62, -16.32, -26.26, -17.32, -26.64, -20.54, -27.92, -24.34, -18.91, -24.97, -23.96, -20.45, -0.110, 0.974, 0.152, 14:57:40.285
221, -29.46, -34.38, -19.42, -28.21, -25.77, -16.45, -26.29, -17.28, -26.64, -20.54, -27.92, -24.34, -18.91, -24.97, -23.96, -20.45, 0.000, 0.000, 0.000, 14:57:40.292
222, -29.46, -34.38, -19.42, -28.21, -25.77, -16.45, -26.29, -17.28, -26.73, -20.32, -28.01, -24.21, -19.04, -24.79, -23.87, -20.52, 0.000, 0.000, 0.000, 14:57:40.292
223, -29.26, -34.44, -19.38, -28.10, -25.70, -16.25, -26.33, -17.41, -26.73, -20.32, -28.01, -24.21, -19.04, -24.79, -23.87, -20.52, 0.000, 0.000, 0.000, 14:57:40.298
224, -29.26, -34.44, -19.38, -28.10, -25.70, -16.25, -26.33, -17.41, -26.44, -20.45, -27.98, -24.27, -18.95, -24.74, -23.72, -20.54, 0.000, 0.000, 0.000, 14:57:40.298
225, -29.03, -34.31, -19.45, -27.96, -25.68, -16.41, -26.31, -17.30, -26.44, -20.45, -27.98, -24.27, -18.95, -24.74, -23.72, -20.54, 0.000, 0.000, 0.000, 14:57:40.304
226, -29.03, -34.31, -19.45, -27.96, -25.68, -16.41, -26.31, -17.30, -26.62, -20.65, -27.60, -24.32, -19.07, -24.81, -23.96, -20.34, 0.000, 0.000, 0.000, 14:57:40.304
227, -29.21, -34.38, -19.20, -27.96, -25.88, -16.58, -26.26, -17.59, -26.62, -20.65, -27.60, -24.32, -19.07, -24.81, -23.96, -20.34, 0.000, 0.000, 0.000, 14:57:40.311
228, -29.21, -34.38, -19.20, -27.96, -25.88, -16.58, -26.26, -17.59, -26.53, -20.54, -27.76, -24.54, -18.89, -24.88, -23.94, -20.61, 0.000, 0.000, 0.000, 14:57:40.311
229, -29.26, -34.51, -19.33, -28.01, -25.66, -16.52, -26.38, -17.52, -26.53, -20.54, -27.76, -24.54, -18.89, -24.88, -23.94, -20.61, 0.000, 0.000, 0.000, 14:57:40.317
230, -29.26, -34.51, -19.33, -28.01, -25.66, -16.52, -26.38, -17.52, -26.76, -20.59, -27.76, -24.54, -18.84, -24.79, -23.89, -20.41, -0.106, 0.970, 0.148, 14:57:40.324
231, -29.35, -34.71, -19.51, -28.01, -25.68, -16.45, -26.60, -17.64, -26.76, -20.59, -27.76, -24.54, -18.84, -24.79, -23.89, -20.41, 0.000, 0.000, 0.000, 14:57:40.324
232, -29.35, -34.71, -19.51, -28.01, -25.68, -16.45, -26.60, -17.64, -26.84, -20.72, -27.83, -24.27, -18.98, -24.88, -23.67, -20.38, 0.000, 0.000, 0.000, 14:57:40.329
233, -29.26, -34.60, -19.33, -28.14, -25.44, -16.45, -26.55, -17.57, -26.84, -20.72, -27.83, -24.27, -18.98, -24.88, -23.67, -20.38, 0.000, 0.000, 0.000, 14:57:40.329
234, -29.26, -34.60, -19.33, -28.14, -25.44, -16.45, -26.55, -17.57, -26.60, -20.52, -27.87, -24.32, -19.16, -24.90, -23.78, -20.45, 0.000, 0.000, 0.000, 14:57:40.336
235, -29.24, -34.44, -19.18, -28.16, -25.48, -16.36, -26.44, -17.66, -26.60, -20.52, -27.87, -24.32, -19.16, -24.90, -23.78, -20.45, 0.000, 0.000, 0.000, 14:57:40.336
236, -29.24, -34.44, -19.18, -28.16, -25.48, -16.36, -26.44, -17.66, -26.76, -20.52, -27.89, -24.39, -18.91, -24.92, -23.98, -20.41, 0.000, 0.000, 0.000, 14:57:40.341
237, -29.26, -34.49, -19.33, -28.10, -25.48, -16.12, -26.42, -17.50, -26.76, -20.52, -27.89, -24.39, -18.91, -24.92, -23.98, -20.41, 0.000, 0.000, 0.000, 14:57:40.342
238, -29.26, -34.49, -19.33, -28.10, -25.48, -16.12, -26.42, -17.50, -26.64, -20.30, -27.89, -24.54, -18.98, -24.86, -23.92, -20.38, 0.000, 0.000, 0.000, 14:57:40.348
239, -29.15, -34.58, -19.42, -28.19, -25.53, -16.25, -26.55, -17.43, -26.64, -20.30, -27.89, -24.54, -18.98, -24.86, -23.92, -20.38, 0.000, 0.000, 0.000, 14:57:40.348
240, -29.15, -34.58, -19.42, -28.19, -25.53, -16.25, -26.55, -17.43, -26.67, -20.52, -27.94, -24.56, -19.27, -24.74, -23.80, -20.47, -0.100, 0.980, 0.148, 14:57:40.355
241, -29.15, -34.22, -19.49, -27.98, -25.70, -16.34, -26.42, -17.41, -26.67, -20.52, -27.94, -24.56, -19.27, -24.74, -23.80, -20.47, 0.000, 0.000, 0.000, 14:57:40.355
242, -29.15, -34.22, -19.49, -27.98, -25.70, -16.34, -26.42, -17.41, -26.51, -20.61, -27.65, -24.54, -19.09, -24.83, -23.72, -20.61, 0.000, 0.000, 0.000, 14:57:40.360
243, -29.46, -34.18, -19.49, -27.89, -25.70, -16.43, -26.51, -17.23, -26.51, -20.61, -27.65, -24.54, -19.09, -24.83, -23.72, -20.61, 0.000, 0.000, 0.000, 14:57:40.360
244, -29.46, -34.18, -19.49, -27.89, -25.70, -16.43, -26.51, -17.23, -26.49, -20.47, -27.81, -24.34, -19.02, -24.77, -24.10, -20.36, 0.000, 0.000, 0.000, 14:57:40.367
245, -29.35, -34.49, -19.56, -28.30, -25.57, -16.41, -26.42, -17.37, -26.49, -20.47, -27.81, -24.34, -19.02, -24.77, -24.10, -20.36, 0.000, 0.000, 0.000, 14:57:40.372
246, -29.35, -34.49, -19.56, -28.30, -25.57, -16.41, -26.42, -17.37, -26.44, -20.32, -27.81, -24.18, -19.09, -24.83, -23.94, -20.43, 0.000, 0.000, 0.000, 14:57:40.372
247, -29.28, -34.40, -19.62, -28.12, -25.66, -16.38, -26.33, -17.41, -26.44, -20.32, -27.81, -24.18, -19.09, -24.83, -23.94, -20.43, 0.000, 0.000, 0.000, 14:57:40.378
248, -29.28, -34.40, -19.62, -28.12, -25.66, -16.38, -26.33, -17.41, -26.60, -20.63, -27.89, -24.32, -18.95, -24.74, -23.74, -20.50, 0.000, 0.000, 0.000, 14:57:40.378
249, -29.26, -34.49, -19.29, -28.27, -25.77, -16.41, -26.40, -17.37, -26.60, -20.63, -27.89, -24.32, -18.95, -24.74, -23.74, -20.50, 0.000, 0.000, 0.000, 14:57:40.394
250, -29.26, -34.49, -19.29, -28.27, -25.77, -16.41, -26.40, -17.37, -26.53, -20.59, -27.85, -24.43, -18.86, -24.68, -23.72, -20.52, -0.110, 0.978, 0.146, 14:57:40.394
251, -29.35, -34.42, -19.40, -28.23, -25.64, -16.29, -26.35, -17.57, -26.53, -20.59, -27.85, -24.43, -18.86, -24.68, -23.72, -20.52, 0.000, 0.000, 0.000, 14:57:40.412
252, -29.35, -34.42, -19.40, -28.23, -25.64, -16.29, -26.35, -17.57, -26.58, -20.63, -27.78, -24.30, -18.82, -24.83, -23.76, -20.41, 0.000, 0.000, 0.000, 14:57:40.415
253, -29.17, -34.49, -19.60, -28.30, -25.55, -16.45, -26.38, -17.55, -26.58, -20.63, -27.78, -24.30, -18.82, -24.83, -23.76, -20.41, 0.000, 0.000, 0.000, 14:57:40.416
254, -29.17, -34.49, -19.60, -28.30, -25.55, -16.45, -26.38, -17.55, -26.69, -20.32, -27.67, -23.98, -18.86, -24.83, -23.85, -20.32, 0.000, 0.000, 0.000, 14:57:40.432
255, -29.26, -34.38, -19.31, -28.23, -25.75, -16.54, -26.40, -17.57, -26.69, -20.32, -27.67, -23.98, -18.86, -24.83, -23.85, -20.32, 0.000, 0.000, 0.000, 14:57:40.440
0, -29.26, -34.38, -19.31, -28.23, -25.75, -16.54, -26.40, -17.57, -26.44, -20.63, -27.74, -24.36, -18.95, -24.92, -24.10, -20.47, 0.000, 0.000, 0.000, 14:57:40.457
1, -29.30, -34.44, -19.47, -28.16, -25.82, -16.63, -26.80, -17.50, -26.44, -20.63, -27.74, -24.36, -18.95, -24.92, -24.10, -20.47, 0.000, 0.000, 0.000, 14:57:40.464
2, -29.30, -34.44, -19.47, -28.16, -25.82, -16.63, -26.80, -17.50, -26.53, -20.54, -27.78, -24.23, -19.07, -24.79, -23.94, -20.32, 0.000, 0.000, 0.000, 14:57:40.471
3, -29.28, -34.42, -19.27, -28.19, -25.68, -16.32, -26.38, -17.50, -26.53, -20.54, -27.78, -24.23, -19.07, -24.79, -23.94, -20.32, -0.102, 0.964, 0.136, 14:57:40.471
4, -29.28, -34.42, -19.27, -28.19, -25.68, -16.32, -26.38, -17.50, -26.60, -20.41, -27.76, -24.41, -19.09, -24.83, -23.67, -20.61, 0.000, 0.000, 0.000, 14:57:40.478
5, -29.17, -34.24, -19.36, -28.23, -25.46, -16.23, -26.55, -17.21, -26.60, -20.41, -27.76, -24.41, -19.09, -24.83, -23.67, -20.61, 0.000, 0.000, 0.000, 14:57:40.478
6, -29.17, -34.24, -19.36, -28.23, -25.46, -16.23, -26.55, -17.21, -26.51, -20.34, -27.92, -24.48, -19.09, -24.83, -23.76, -20.41, 0.000, 0.000, 0.000, 14:57:40.484
7, -29.48, -34.35, -19.40, -28.14, -25.62, -16.52, -26.60, -17.30, -26.51, -20.34, -27.92, -24.48, -19.09, -24.83, -23.76, -20.41, 0.000, 0.000, 0.000, 14:57:40.485
8, -29.48, -34.35, -19.40, -28.14, -25.62, -16.52, -26.60, -17.30, -26.67, -20.43, -27.72, -24.43, -19.31, -24.77, -23.85, -20.34, 0.000, 0.000, 0.000, 14:57:40.491
9, -29.24, -34.35, -19.45, -28.03, -25.44, -16.34, -26.49, -17.41, -26.67, -20.43, -27.72, -24.43, -19.31, -24.77, -23.85, -20.34, 0.000, 0.000, 0.000, 14:57:40.491
10, -29.24, -34.35, -19.45, -28.03, -25.44, -16.34, -26.49, -17.41, -26.64, -20.41, -27.65, -24.54, -18.98, -24.59, -23.83, -20.41, 0.000, 0.000, 0.000, 14:57:40.498
11, -29.33, -34.51, -19.40, -28.14, -25.68, -16.45, -26.58, -17.41, -26.64, -20.41, -27.65, -24.54, -18.98, -24.59, -23.83, -20.41, 0.000, 0.000, 0.000, 14:57:40.498
12, -29.33, -34.51, -19.40, -28.14, -25.68, -16.45, -26.58, -17.41, -26.60, -20.47, -27.78, -24.45, -19.13, -24.90, -23.56, -20.43, 0.000, 0.000, 0.000, 14:57:40.504
13, -29.35, -34.38, -19.49, -28.05, -25.68, -16.54, -26.49, -17.57, -26.60, -20.47, -27.78, -24.45, -19.13, -24.90, -23.56, -20.43, -0.102, 0.976, 0.126, 14:57:40.504
14, -29.35, -34.38, -19.49, -28.05, -25.68, -16.54, -26.49, -17.57, -26.53, -20.41, -27.85, -24.36, -19.07, -24.86, -23.72, -20.59, 0.000, 0.000, 0.000, 14:57:40.511
15, -29.21, -34.38, -19.58, -28.16, -25.53, -16.47, -26.58, -17.50, -26.53, -20.41, -27.85, -24.36, -19.07, -24.86, -23.72, -20.59, 0.000, 0.000, 0.000, 14:57:40.511
16, -29.21, -34.38, -19.58, -28.16, -25.53, -16.47, -26.58, -17.50, -26.44, -20.50, -27.72, -24.25, -19.20, -24.92, -23.72, -20.36, 0.000, 0.000, 0.000, 14:57:40.517
17, -29.28, -34.38, -19.36, -28.05, -25.62, -16.47, -26.40, -17.32, -26.44, -20.50, -27.72, -24.25, -19.20, -24.92, -23.72, -20.36, 0.000, 0.000, 0.000, 14:57:40.524
18, -29.28, -34.38, -19.36, -28.05, -25.62, -16.47, -26.40, -17.32, -26.46, -20.32, -27.74, -24.36, -19.07, -24.74, -23.60, -20.54, 0.000, 0.000, 0.000, 14:57:40.524
19, -29.39, -34.20, -19.40, -28.16, -25.70, -16.36, -26.31, -17.68, -26.46, -20.32, -27.74, -24.36, -19.07, -24.74, -23.60, -20.54, 0.000, 0.000, 0.000, 14:57:40.530
20, -29.39, -34.20, -19.40, -28.16, -25.70, -16.36, -26.31, -17.68, -26.49, -20.61, -27.85, -24.25, -19.00, -24.94, -23.74, -20.50, 0.000, 0.000, 0.000, 14:57:40.530
21, -29.37, -34.40, -19.40, -28.10, -25.55, -16.36, -26.35, -17.41, -26.49, -20.61, -27.85, -24.25, -19.00, -24.94, -23.74, -20.50, 0.000, 0.000, 0.000, 14:57:40.537
22, -29.37, -34.40, -19.40, -28.10, -25.55, -16.36, -26.35, -17.41, -26.58, -20.59, -27.72, -24.36, -19.09, -24.90, -23.78, -20.25, 0.000, 0.000, 0.000, 14:57:40.537
23, -29.44, -34.42, -19.38, -28.03, -25.59, -16.32, -26.26, -17.34, -26.58, -20.59, -27.72, -24.36, -19.09, -24.90, -23.78, -20.25, -0.120, 0.986, 0.124, 14:57:40.543
24, -29.44, -34.42, -19.38, -28.03, -25.59, -16.32, -26.26, -17.34, -26.51, -20.50, -27.83, -24.21, -19.16, -25.08, -23.74, -20.41, 0.000, 0.000, 0.000, 14:57:40.543
25, -29.28, -34.47, -19.60, -28.14, -25.53, -16.34, -26.31, -17.46, -26.51, -20.50, -27.83, -24.21, -19.16, -25.08, -23.74, -20.41, 0.000, 0.000, 0.000, 14:57:40.549
26, -29.28, -34.47, -19.60, -28.14, -25.53, -16.34, -26.31, -17.46, -26.60, -20.63, -27.94, -24.30, -19.09, -24.86, -23.74, -20.27, 0.000, 0.000, 0.000, 14:57:40.550
27, -29.30, -34.31, -19.60, -28.16, -25.55, -16.43, -26.24, -17.32, -26.60, -20.63, -27.94, -24.30, -19.09, -24.86, -23.74, -20.27, 0.000, 0.000, 0.000, 14:57:40.556
28, -29.30, -34.31, -19.60, -28.16, -25.55, -16.43, -26.24, -17.32, -26.53, -20.56, -27.74, -24.48, -18.95, -24.54, -23.49, -20.32, 0.000, 0.000, 0.000, 14:57:40.556
29, -29.35, -34.29, -19.38, -28.21, -25.68, -16.38, -26.46, -17.39, -26.53, -20.56, -27.74, -24.48, -18.95, -24.54, -23.49, -20.32, 0.000, 0.000, 0.000, 14:57:40.561
30, -29.35, -34.29, -19.38, -28.21, -25.68, -16.38, -26.46, -17.39, -26.51, -20.52, -27.78, -24.27, -19.09, -24.43, -23.76, -20.36, 0.000, 0.000, 0.000, 14:57:40.562
31, -29.33, -34.29, -19.40, -28.10, -25.57, -16.41, -26.42, -17.50, -26.51, -20.52, -27.78, -24.27, -19.09, -24.43, -23.76, -20.36, 0.000, 0.000, 0.000, 14:57:40.568
32, -29.33, -34.29, -19.40, -28.10, -25.57, -16.41, -26.42, -17.50, -26.71, -20.59, -27.74, -24.36, -19.04, -24.88, -23.63, -20.41, 0.000, 0.000, 0.000, 14:57:40.574
33, -29.28, -34.40, -19.36, -28.10, -25.84, -16.27, -26.44, -17.61, -26.71, -20.59, -27.74, -24.36, -19.04, -24.88, -23.63, -20.41, -0.142, 0.990, 0.128, 14:57:40.574
34, -29.28, -34.40, -19.36, -28.10, -25.84, -16.27, -26.44, -17.61, -26.67, -20.36, -27.81, -24.59, -19.20, -24.83, -23.78, -20.25, 0.000, 0.000, 0.000, 14:57:40.581
35, -29.08, -34.51, -19.31, -27.98, -25.77, -16.36, -26.44, -17.52, -26.67, -20.36, -27.81, -24.59, -19.20, -24.83, -23.78, -20.25, 0.000, 0.000, 0.000, 14:57:40.581
36, -29.08, -34.51, -19.31, -27.98, -25.77, -16.36, -26.44, -17.52, -26.67, -20.36, -27.81, -24.41, -18.82, -24.63, -23.87, -20.47, 0.000, 0.000, 0.000, 14:57:40.587
37, -29.12, -34.51, -19.33, -27.89, -25.84, -16.43, -26.31, -17.26, -26.67, -20.36, -27.81, -24.41, -18.82, -24.63, -23.87, -20.47, 0.000, 0.000, 0.000, 14:57:40.587
38, -29.12, -34.51, -19.33, -27.89, -25.84, -16.43, -26.31, -17.26, -26.84, -20.52, -27.89, -24.59, -18.82, -24.77, -23.54, -20.30, 0.000, 0.000, 0.000, 14:57:40.592
39, -29.21, -34.47, -19.45, -28.10, -25.70, -16.41, -26.29, -17.12, -26.84, -20.52, -27.89, -24.59, -18.82, -24.77, -23.54, -20.30, 0.000, 0.000, 0.000, 14:57:40.592
40, -29.21, -34.47, -19.45, -28.10, -25.70, -16.41, -26.29, -17.12, -26.69, -20.56, -27.81, -24.34, -19.22, -24.81, -23.72, -20.43, 0.000, 0.000, 0.000, 14:57:40.600
41, -29.35, -34.47, -19.54, -28.05, -25.77, -16.47, -26.26, -17.30, -26.69, -20.56, -27.81, -24.34, -19.22, -24.81, -23.72, -20.43, 0.000, 0.000, 0.000, 14:57:40.600
42, -29.35, -34.47, -19.54, -28.05, -25.77, -16.47, -26.26, -17.30, -26.76, -20.54, -28.01, -24.21, -18.82, -24.81, -23.78, -20.45, 0.000, 0.000, 0.000, 14:57:40.606
43, -29.39, -34.33, -19.42, -28.19, -25.55, -16.38, -26.38, -17.37, -26.76, -20.54, -28.01, -24.21, -18.82, -24.81, -23.78, -20.45, -0.138, 0.984, 0.140, 14:57:40.606
44, -29.39, -34.33, -19.42, -28.19, -25.55, -16.38, -26.38, -17.37, -26.67, -20.47, -27.69, -24.25, -18.93, -24.61, -23.78, -20.52, 0.000, 0.000, 0.000, 14:57:40.612
45, -29.26, -34.29, -19.60, -27.89, -25.48, -16.47, -26.31, -17.43, -26.67, -20.47, -27.69, -24.25, -18.93, -24.61, -23.78, -20.52, 0.000, 0.000, 0.000, 14:57:40.612
46, -29.26, -34.29, -19.60, -27.89, -25.48, -16.47, -26.31, -17.43, -26.64, -20.54, -27.78, -24.21, -19.16, -24.92, -23.56, -20.36, 0.000, 0.000, 0.000, 14:57:40.619
47, -29.33, -34.49, -19.47, -28.21, -25.59, -16.45, -26.58, -17.30, -26.64, -20.54, -27.78, -24.21, -19.16, -24.92, -23.56, -20.36, 0.000, 0.000, 0.000, 14:57:40.625
48, -29.33, -34.49, -19.47, -28.21, -25.59, -16.45, -26.58, -17.30, -26.55, -20.21, -27.78, -24.48, -18.95, -24.81, -23.76, -20.30, 0.000, 0.000, 0.000, 14:57:40.625
49, -29.26, -34.38, -19.51, -28.01, -25.57, -16.43, -26.55, -17.48, -26.55, -20.21, -27.78, -24.48, -18.95, -24.81, -23.76, -20.30, 0.000, 0.000, 0.000, 14:57:40.631
50, -29.26, -34.38, -19.51, -28.01, -25.57, -16.43, -26.55, -17.48, -26.60, -20.27, -27.83, -24.48, -18.98, -24.92, -23.83, -20.41, 0.000, 0.000, 0.000, 14:57:40.632
51, -29.30, -34.44, -19.47, -28.01, -25.62, -16.41, -26.29, -17.52, -26.60, -20.27, -27.83, -24.48, -18.98, -24.92, -23.83, -20.41, 0.000, 0.000, 0.000, 14:57:40.637
52, -29.30, -34.44, -19.47, -28.01, -25.62, -16.41, -26.29, -17.52, -26.69, -20.54, -27.98, -24.45, -19.27, -24.92, -23.85, -20.54, 0.000, 0.000, 0.000, 14:57:40.637
53, -29.35, -34.31, -19.27, -28.05, -25.84, -16.29, -26.33, -17.43, -26.69, -20.54, -27.98, -24.45, -19.27, -24.92, -23.85, -20.54, -0.114, 0.970, 0.154, 14:57:40.644
54, -29.35, -34.31, -19.27, -28.05, -25.84, -16.29, -26.33, -17.43, -26.49, -20.47, -28.01, -24.43, -19.11, -24.99, -23.76, -20.45, 0.000, 0.000, 0.000, 14:57:40.644
55, -29.37, -34.31, -19.42, -28.10, -25.57, -16.29, -26.29, -17.34, -26.49, -20.47, -28.01, -24.43, -19.11, -24.99, -23.76, -20.45, 0.000, 0.000, 0.000, 14:57:40.650
56, -29.37, -34.31, -19.42, -28.10, -25.57, -16.29, -26.29, -17.34, -26.42, -20.38, -28.03, -24.45, -19.07, -24.94, -23.65, -20.47, 0.000, 0.000, 0.000, 14:57:40.650
57, -29.26, -34.51, -19.47, -28.23, -25.73, -16.34, -26.20, -17.55, -26.42, -20.38, -28.03, -24.45, -19.07, -24.94, -23.65, -20.47, 0.000, 0.000, 0.000, 14:57:40.657
58, -29.26, -34.51, -19.47, -28.23, -25.73, -16.34, -26.20, -17.55, -26.35, -20.34, -27.85, -24.34, -18.91, -24.88, -23.74, -20.52, 0.000, 0.000, 0.000, 14:57:40.657
59, -29.30, -34.49, -19.45, -28.05, -25.77, -16.29, -26.26, -17.46, -26.35, -20.34, -27.85, -24.34, -18.91, -24.88, -23.74, -20.52, 0.000, 0.000, 0.000, 14:57:40.662
60, -29.30, -34.49, -19.45, -28.05, -25.77, -16.29, -26.26, -17.46, -26.62, -20.52, -27.72, -24.48, -19.09, -24.86, -23.76, -20.52, 0.000, 0.000, 0.000, 14:57:40.662
61, -29.30, -34.22, -19.42, -28.03, -25.64, -16.38, -26.40, -17.48, -26.62, -20.52, -27.72, -24.48, -19.09, -24.86, -23.76, -20.52, 0.000, 0.000, 0.000, 14:57:40.668
62, -29.30, -34.22, -19.42, -28.03, -25.64, -16.38, -26.40, -17.48, -26.49, -20.45, -27.78, -24.34, -19.16, -24.92, -23.78, -20.59, 0.000, 0.000, 0.000, 14:57:40.669
63, -29.33, -34.44, -19.45, -28.05, -25.82, -16.27, -26.53, -17.48, -26.49, -20.45, -27.78, -24.34, -19.16, -24.92, -23.78, -20.59, -0.096, 0.958, 0.170, 14:57:40.675
64, -29.33, -34.44, -19.45, -28.05, -25.82, -16.27, -26.53, -17.48, -26.60, -20.38, -27.94, -24.61, -19.07, -24.88, -23.78, -20.36, 0.000, 0.000, 0.000, 14:57:40.682
65, -28.92, -34.24, -19.42, -28.34, -25.70, -16.61, -26.53, -17.64, -26.60, -20.38, -27.94, -24.61, -19.07, -24.88, -23.78, -20.36, 0.000, 0.000, 0.000, 14:57:40.682
66, -28.92, -34.24, -19.42, -28.34, -25.70, -16.61, -26.53, -17.64, -26.76, -20.56, -27.76, -24.54, -19.22, -24.74, -23.58, -20.38, 0.000, 0.000, 0.000, 14:57:40.688
67, -29.41, -34.42, -19.42, -28.25, -25.70, -16.36, -26.33, -17.41, -26.76, -20.56, -27.76, -24.54, -19.22, -24.74, -23.58, -20.38, 0.000, 0.000, 0.000, 14:57:40.688
68, -29.41, -34.42, -19.42, -28.25, -25.70, -16.36, -26.33, -17.41, -26.49, -20.52, -27.81, -24.30, -19.20, -24.92, -23.69, -20.30, 0.000, 0.000, 0.000, 14:57:40.693
69, -29.50, -34.44, -19.45, -27.96, -25.73, -16.34, -26.38, -17.48, -26.49, -20.52, -27.81, -24.30, -19.20, -24.92, -23.69, -20.30, 0.000, 0.000, 0.000, 14:57:40.694
70, -29.50, -34.44, -19.45, -27.96, -25.73, -16.34, -26.38, -17.48, -26.51, -20.43, -27.85, -24.45, -19.00, -24.77, -23.83, -20.41, 0.000, 0.000, 0.000, 14:57:40.700
71, -29.35, -34.56, -19.40, -28.03, -25.70, -16.61, -26.33, -17.26, -26.51, -20.43, -27.85, -24.45, -19.00, -24.77, -23.83, -20.41, 0.000, 0.000, 0.000, 14:57:40.700
72, -29.35, -34.56, -19.40, -28.03, -25.70, -16.61, -26.33, -17.26, -26.60, -20.25, -27.83, -24.39, -19.07, -24.79, -23.69, -20.61, 0.000, 0.000, 0.000, 14:57:40.707
73, -29.26, -34.40, -19.29, -28.07, -25.86, -16.36, -26.42, -17.37, -26.60, -20.25, -27.83, -24.39, -19.07, -24.79, -23.69, -20.61, -0.092, 0.950, 0.154, 14:57:40.707
74, -29.26, -34.40, -19.29, -28.07, -25.86, -16.36, -26.42, -17.37, -26.46, -20.56, -27.74, -24.39, -18.95, -24.65, -23.96, -20.38, 0.000, 0.000, 0.000, 14:57:40.713
75, -29.59, -34.29, -19.38, -28.16, -25.86, -16.34, -26.42, -17.41, -26.46, -20.56, -27.74, -24.39, -18.95, -24.65, -23.96, -20.38, 0.000, 0.000, 0.000, 14:57:40.713
76, -29.59, -34.29, -19.38, -28.16, -25.86, -16.34, -26.42, -17.41, -26.53, -20.50, -27.65, -24.43, -19.09, -24.86, -23.87, -20.52, 0.000, 0.000, 0.000, 14:57:40.719
77, -29.28, -34.35, -19.38, -28.25, -25.64, -16.38, -26.53, -17.28, -26.53, -20.50, -27.65, -24.43, -19.09, -24.86, -23.87, -20.52, 0.000, 0.000, 0.000, 14:57:40.720
78, -29.28, -34.35, -19.38, -28.25, -25.64, -16.38, -26.53, -17.28, -26.55, -20.38, -27.67, -24.50, -19.09, -24.65, -23.78, -20.59, 0.000, 0.000, 0.000, 14:57:40.726
79, -29.26, -34.49, -19.56, -28.07, -25.66, -16.38, -26.44, -17.59, -26.55, -20.38, -27.67, -24.50, -19.09, -24.65, -23.78, -20.59, 0.000, 0.000, 0.000, 14:57:40.732
80, -29.26, -34.49, -19.56, -28.07, -25.66, -16.38, -26.44, -17.59, -26.73, -20.52, -27.81, -24.23, -18.89, -24.70, -23.83, -20.59, 0.000, 0.000, 0.000, 14:57:40.732
81, -29.33, -34.47, -19.45, -28.39, -25.59, -16.41, -26.38, -17.52, -26.73, -20.52, -27.81, -24.23, -18.89, -24.70, -23.83, -20.59, 0.000, 0.000, 0.000, 14:57:40.738
82, -29.33, -34.47, -19.45, -28.39, -25.59, -16.41, -26.38, -17.52, -26.67, -20.52, -27.78, -24.30, -18.89, -24.68, -23.72, -20.47, 0.000, 0.000, 0.000, 14:57:40.738
83, -29.33, -34.27, -19.47, -28.23, -25.79, -16.47, -26.53, -17.46, -26.67, -20.52, -27.78, -24.30, -18.89, -24.68, -23.72, -20.47, -0.108, 0.958, 0.140, 14:57:40.745
84, -29.33, -34.27, -19.47, -28.23, -25.79, -16.47, -26.53, -17.46, -26.49, -20.63, -27.85, -24.32, -18.91, -24.83, -24.03, -20.27, 0.000, 0.000, 0.000, 14:57:40.745
85, -29.33, -34.31, -19.54, -28.12, -25.73, -16.38, -26.38, -17.37, -26.49, -20.63, -27.85, -24.32, -18.91, -24.83, -24.03, -20.27, 0.000, 0.000, 0.000, 14:57:40.750
86, -29.33, -34.31, -19.54, -28.12, -25.73, -16.38, -26.38, -17.37, -26.51, -20.50, -27.83, -24.48, -19.09, -24.88, -23.92, -20.30, 0.000, 0.000, 0.000, 14:57:40.750
87, -29.15, -34.42, -19.51, -27.89, -25.59, -16.34, -26.17, -17.46, -26.51, -20.50, -27.83, -24.48, -19.09, -24.88, -23.92, -20.30, 0.000, 0.000, 0.000, 14:57:40.757
88, -29.15, -34.42, -19.51, -27.89, -25.59, -16.34, -26.17, -17.46, -26.64, -20.30, -27.89, -24.32, -19.13, -24.65, -23.87, -20.41, 0.000, 0.000, 0.000, 14:57:40.757
89, -29.21, -34.49, -19.29, -28.03, -25.55, -16.52, -26.44, -17.39, -26.64, -20.30, -27.89, -24.32, -19.13, -24.65, -23.87, -20.41, 0.000, 0.000, 0.000, 14:57:40.763
90, -29.21, -34.49, -19.29, -28.03, -25.55, -16.52, -26.44, -17.39, -26.64, -20.41, -27.98, -24.23, -19.13, -24.74, -23.76, -20.18, 0.000, 0.000, 0.000, 14:57:40.763
91, -29.19, -34.58, -19.47, -28.10, -25.75, -16.45, -26.22, -17.46, -26.64, -20.41, -27.98, -24.23, -19.13, -24.74, -23.76, -20.18, 0.000, 0.000, 0.000, 14:57:40.769
92, -29.19, -34.58, -19.47, -28.10, -25.75, -16.45, -26.22, -17.46, -26.55, -20.32, -27.87, -24.41, -19.07, -24.83, -23.69, -20.34, 0.000, 0.000, 0.000, 14:57:40.769
93, -29.39, -34.47, -19.36, -27.92, -25.62, -16.41, -26.42, -17.23, -26.55, -20.32, -27.87, -24.41, -19.07, -24.83, -23.69, -20.34, -0.120, 0.972, 0.124, 14:57:40.775
94, -29.39, -34.47, -19.36, -27.92, -25.62, -16.41, -26.42, -17.23, -26.76, -20.54, -27.92, -24.41, -19.02, -24.74, -23.67, -20.23, 0.000, 0.000, 0.000, 14:57:40.782
95, -29.35, -34.47, -19.54, -28.03, -25.79, -16.45, -26.29, -17.50, -26.76, -20.54, -27.92, -24.41, -19.02, -24.74, -23.67, -20.23, 0.000, 0.000, 0.000, 14:57:40.782
96, -29.35, -34.47, -19.54, -28.03, -25.79, -16.45, -26.29, -17.50, -26.58, -20.52, -27.89, -24.43, -18.98, -24.70, -23.74, -20.23, 0.000, 0.000, 0.000, 14:57:40.788
97, -29.10, -34.40, -19.40, -28.25, -25.64, -16.41, -26.20, -17.48, -26.58, -20.52, -27.89, -24.43, -18.98, -24.70, -23.74, -20.23, 0.000, 0.000, 0.000, 14:57:40.789
98, -29.10, -34.40, -19.40, -28.25, -25.64, -16.41, -26.20, -17.48, -26.69, -20.56, -27.94, -24.23, -18.98, -24.56, -23.72, -20.25, 0.000, 0.000, 0.000, 14:57:40.795
99, -29.26, -34.27, -19.22, -28.16, -25.64, -16.70, -26.29, -17.48, -26.69, -20.56, -27.94, -24.23, -18.98, -24.56, -23.72, -20.25, 0.000, 0.000, 0.000, 14:57:40.795
100, -29.26, -34.27, -19.22, -28.16, -25.64, -16.70, -26.29, -17.48, -26.49, -20.54, -27.78, -24.32, -18.89, -24.79, -23.87, -20.41, 0.000, 0.000, 0.000, 14:57:40.801
101, -29.21, -34.47, -19.36, -28.07, -25.73, -16.32, -26.15, -17.59, -26.49, -20.54, -27.78, -24.32, -18.89, -24.79, -23.87, -20.41, 0.000, 0.000, 0.000, 14:57:40.801
102, -29.21, -34.47, -19.36, -28.07, -25.73, -16.32, -26.15, -17.59, -26.55, -20.74, -27.78, -24.65, -19.07, -24.94, -23.83, -20.23, 0.000, 0.000, 0.000, 14:57:40.808
103, -29.21, -34.29, -19.31, -28.27, -25.77, -16.14, -26.29, -17.61, -26.55, -20.74, -27.78, -24.65, -19.07, -24.94, -23.83, -20.23, -0.120, 0.968, 0.110, 14:57:40.808
104, -29.21, -34.29, -19.31, -28.27, -25.77, -16.14, -26.29, -17.61, -26.58, -20.54, -27.78, -24.34, -19.07, -24.94, -23.78, -20.50, 0.000, 0.000, 0.000, 14:57:40.813
105, -29.24, -34.40, -19.78, -28.03, -25.59, -16.25, -26.26, -17.41, -26.58, -20.54, -27.78, -24.34, -19.07, -24.94, -23.78, -20.50, 0.000, 0.000, 0.000, 14:57:40.813
106, -29.24, -34.40, -19.78, -28.03, -25.59, -16.25, -26.26, -17.41, -26.44, -20.52, -27.94, -24.36, -18.98, -24.88, -23.65, -20.47, 0.000, 0.000, 0.000, 14:57:40.820
107, -29.30, -34.35, -19.49, -28.25, -25.97, -16.18, -26.26, -17.34, -26.44, -20.52, -27.94, -24.36, -18.98, -24.88, -23.65, -20.47, 0.000, 0.000, 0.000, 14:57:40.820
108, -29.30, -34.35, -19.49, -28.25, -25.97, -16.18, -26.26, -17.34, -26.64, -20.36, -27.85, -24.30, -19.22, -24.83, -23.49, -20.30, 0.000, 0.000, 0.000, 14:57:40.826
109, -29.19, -34.42, -19.47, -28.07, -25.77, -16.21, -26.44, -17.52, -26.64, -20.36, -27.85, -24.30, -19.22, -24.83, -23.49, -20.30, 0.000, 0.000, 0.000, 14:57:40.832
110, -29.19, -34.42, -19.47, -28.07, -25.77, -16.21, -26.44, -17.52, -26.71, -20.45, -27.81, -24.39, -19.22, -24.83, -23.63, -20.43, 0.000, 0.000, 0.000, 14:57:40.833
111, -29.08, -34.38, -19.62, -28.19, -25.62, -16.43, -26.22, -17.46, -26.71, -20.45, -27.81, -24.39, -19.22, -24.83, -23.63, -20.43, 0.000, 0.000, 0.000, 14:57:40.838
112, -29.08, -34.38, -19.62, -28.19, -25.62, -16.43, -26.22, -17.46, -26.76, -20.45, -27.85, -24.43, -19.04, -24.74, -23.87, -20.50, 0.000, 0.000, 0.000, 14:57:40.838
113, -29.21, -34.18, -19.58, -28.10, -25.68, -16.36, -26.26, -17.43, -26.76, -20.45, -27.85, -24.43, -19.04, -24.74, -23.87, -20.50, -0.112, 0.992, 0.116, 14:57:40.844
114, -29.21, -34.18, -19.58, -28.10, -25.68, -16.36, -26.26, -17.43, -26.55, -20.47, -27.78, -24.34, -18.98, -24.63, -23.67, -20.34, 0.000, 0.000, 0.000, 14:57:40.844
115, -29.24, -34.27, -19.42, -28.03, -25.68, -16.29, -26.31, -17.43, -26.55, -20.47, -27.78, -24.34, -18.98, -24.63, -23.67, -20.34, 0.000, 0.000, 0.000, 14:57:40.851
116, -29.24, -34.27, -19.42, -28.03, -25.68, -16.29, -26.31, -17.43, -26.76, -20.34, -28.07, -24.07, -19.20, -24.79, -23.56, -20.14, 0.000, 0.000, 0.000, 14:57:40.851
117, -29.15, -34.49, -19.47, -28.12, -25.53, -16.58, -26.26, -17.37, -26.76, -20.34, -28.07, -24.07, -19.20, -24.79, -23.56, -20.14, 0.000, 0.000, 0.000, 14:57:40.857
118, -29.15, -34.49, -19.47, -28.12, -25.53, -16.58, -26.26, -17.37, -26.58, -20.32, -27.83, -24.30, -19.18, -24.83, -23.74, -20.65, 0.000, 0.000, 0.000, 14:57:40.857
119, -29.37, -34.53, -19.31, -28.19, -25.57, -16.29, -26.35, -17.37, -26.58, -20.32, -27.83, -24.30, -19.18, -24.83, -23.74, -20.65, 0.000, 0.000, 0.000, 14:57:40.864
120, -29.37, -34.53, -19.31, -28.19, -25.57, -16.29, -26.35, -17.37, -26.49, -20.52, -27.94, -24.23, -19.09, -24.83, -23.85, -20.65, 0.000, 0.000, 0.000, 14:57:40.864
121, -29.24, -34.51, -19.22, -28.14, -25.73, -16.23, -26.40, -17.43, -26.49, -20.52, -27.94, -24.23, -19.09, -24.83, -23.85, -20.65, 0.000, 0.000, 0.000, 14:57:40.870
122, -29.24, -34.51, -19.22, -28.14, -25.73, -16.23, -26.40, -17.43, -26.76, -20.63, -27.69, -24.34, -19.07, -25.08, -23.94, -20.54, 0.000, 0.000, 0.000, 14:57:40.870
123, -28.99, -34.35, -19.51, -28.14, -25.57, -16.43, -26.49, -17.48, -26.76, -20.63, -27.69, -24.34, -19.07, -25.08, -23.94, -20.54, -0.108, 0.996, 0.116, 14:57:40.876
124, -28.99, -34.35, -19.51, -28.14, -25.57, -16.43, -26.49, -17.48, -26.76, -20.54, -27.67, -24.16, -19.07, -25.08, -23.67, -20.43, 0.000, 0.000, 0.000, 14:57:40.876
125, -29.19, -34.40, -19.40, -27.96, -25.55, -16.36, -26.38, -17.41, -26.76, -20.54, -27.67, -24.16, -19.07, -25.08, -23.67, -20.43, 0.000, 0.000, 0.000, 14:57:40.884
126, -29.19, -34.40, -19.40, -27.96, -25.55, -16.36, -26.38, -17.41, -26.60, -20.65, -27.87, -24.25, -19.22, -24.90, -23.67, -20.54, 0.000, 0.000, 0.000, 14:57:40.892
127, -29.39, -34.31, -19.27, -28.07, -25.77, -16.27, -26.55, -17.59, -26.60, -20.65, -27.87, -24.25, -19.22, -24.90, -23.67, -20.54, 0.000, 0.000, 0.000, 14:57:40.892
128, -29.39, -34.31, -19.27, -28.07, -25.77, -16.27, -26.55, -17.59, -26.69, -20.52, -27.85, -24.39, -19.07, -24.72, -23.98, -20.36, 0.000, 0.000, 0.000, 14:57:40.900
129, -29.28, -34.40, -19.24, -28.16, -25.93, -16.54, -26.38, -17.39, -26.69, -20.52, -27.85, -24.39, -19.07, -24.72, -23.98, -20.36, 0.000, 0.000, 0.000, 14:57:40.901
130, -29.28, -34.40, -19.24, -28.16, -25.93, -16.54, -26.38, -17.39, -26.71, -20.61, -27.96, -24.39, -19.00, -24.72, -23.80, -20.38, 0.000, 0.000, 0.000, 14:57:40.907
131, -29.19, -34.33, -19.42, -28.19, -25.79, -16.36, -26.44, -17.52, -26.71, -20.61, -27.96, -24.39, -19.00, -24.72, -23.80, -20.38, 0.000, 0.000, 0.000, 14:57:40.907
132, -29.19, -34.33, -19.42, -28.19, -25.79, -16.36, -26.44, -17.52, -26.67, -20.41, -27.85, -24.41, -19.45, -24.77, -23.80, -20.23, 0.000, 0.000, 0.000, 14:57:40.916
133, -29.06, -34.24, -19.60, -28.05, -25.50, -16.47, -26.40, -17.37, -26.67, -20.41, -27.85, -24.41, -19.45, -24.77, -23.80, -20.23, -0.102, 0.984, 0.122, 14:57:40.916
134, -29.06, -34.24, -19.60, -28.05, -25.50, -16.47, -26.40, -17.37, -26.69, -20.63, -27.89, -24.61, -19.24, -25.01, -23.78, -20.25, 0.000, 0.000, 0.000, 14:57:40.925
135, -29.17, -34.40, -19.36, -28.16, -25.55, -16.29, -26.44, -17.57, -26.69, -20.63, -27.89, -24.61, -19.24, -25.01, -23.78, -20.25, 0.000, 0.000, 0.000, 14:57:40.925
136, -29.17, -34.40, -19.36, -28.16, -25.55, -16.29, -26.44, -17.57, -26.60, -20.63, -27.58, -24.25, -18.95, -24.94, -23.63, -20.38, 0.000, 0.000, 0.000, 14:57:40.933
137, -29.24, -34.31, -19.36, -28.32, -25.68, -16.32, -26.20, -17.37, -26.60, -20.63, -27.58, -24.25, -18.95, -24.94, -23.63, -20.38, 0.000, 0.000, 0.000, 14:57:40.933
138, -29.24, -34.31, -19.36, -28.32, -25.68, -16.32, -26.20, -17.37, -26.51, -20.32, -27.89, -24.39, -18.84, -24.65, -23.85, -20.61, 0.000, 0.000, 0.000, 14:57:40.940
139, -29.37, -34.40, -19.56, -28.27, -25.68, -16.36, -26.51, -17.41, -26.51, -20.32, -27.89, -24.39, -18.84, -24.65, -23.85, -20.61, 0.000, 0.000, 0.000, 14:57:40.940
140, -29.37, -34.40, -19.56, -28.27, -25.68, -16.36, -26.51, -17.41, -26.67, -20.52, -27.72, -24.14, -19.02, -24.72, -23.98, -20.27, 0.000, 0.000, 0.000, 14:57:40.945
141, -29.44, -34.22, -19.38, -27.92, -25.73, -16.34, -26.38, -17.55, -26.67, -20.52, -27.72, -24.14, -19.02, -24.72, -23.98, -20.27, 0.000, 0.000, 0.000, 14:57:40.951
142, -29.44, -34.22, -19.38, -27.92, -25.73, -16.34, -26.38, -17.55, -26.58, -20.56, -27.78, -24.36, -18.91, -24.86, -23.89, -20.34, 0.000, 0.000, 0.000, 14:57:40.952
143, -29.33, -34.31, -19.20, -28.21, -25.91, -16.21, -26.38, -17.70, -26.58, -20.56, -27.78, -24.36, -18.91, -24.86, -23.89, -20.34, -0.114, 0.982, 0.122, 14:57:40.959
144, -29.33, -34.31, -19.20, -28.21, -25.91, -16.21, -26.38, -17.70, -26.69, -20.63, -27.94, -24.50, -18.98, -24.92, -23.69, -20.59, 0.000, 0.000, 0.000, 14:57:40.959
145, -29.30, -34.13, -19.36, -27.83, -25.75, -16.34, -26.38, -17.19, -26.69, -20.63, -27.94, -24.50, -18.98, -24.92, -23.69, -20.59, 0.000, 0.000, 0.000, 14:57:40.968
146, -29.30, -34.13, -19.36, -27.83, -25.75, -16.34, -26.38, -17.19, -26.80, -20.45, -27.87, -24.39, -19.29, -24.83, -23.72, -20.52, 0.000, 0.000, 0.000, 14:57:40.968
147, -29.17, -34.18, -19.27, -27.96, -25.66, -16.41, -26.58, -17.50, -26.80, -20.45, -27.87, -24.39, -19.29, -24.83, -23.72, -20.52, 0.000, 0.000, 0.000, 14:57:40.975
148, -29.17, -34.18, -19.27, -27.96, -25.66, -16.41, -26.58, -17.50, -26.62, -20.61, -27.85, -24.34, -19.20, -24.81, -23.69, -20.45, 0.000, 0.000, 0.000, 14:57:40.975
149, -29.12, -34.38, -19.69, -28.19, -25.75, -16.38, -26.44, -17.52, -26.62, -20.61, -27.85, -24.34, -19.20, -24.81, -23.69, -20.45, 0.000, 0.000, 0.000, 14:57:40.984
150, -29.12, -34.38, -19.69, -28.19, -25.75, -16.38, -26.44, -17.52, -26.46, -20.43, -27.98, -24.23, -19.22, -24.74, -23.85, -20.38, 0.000, 0.000, 0.000, 14:57:40.984
151, -29.26, -34.33, -19.51, -28.05, -25.77, -16.23, -26.38, -17.55, -26.46, -20.43, -27.98, -24.23, -19.22, -24.74, -23.85, -20.38, 0.000, 0.000, 0.000, 14:57:40.991
152, -29.26, -34.33, -19.51, -28.05, -25.77, -16.23, -26.38, -17.55, -26.60, -20.41, -27.65, -24.10, -18.91, -24.68, -23.74, -20.52, 0.000, 0.000, 0.000, 14:57:40.991
153, -29.28, -34.15, -19.24, -28.23, -25.70, -16.41, -26.46, -17.32, -26.60, -20.41, -27.65, -24.10, -18.91, -24.68, -23.74, -20.52, -0.122, 0.974, 0.126, 14:57:40.998
154, -29.28, -34.15, -19.24, -28.23, -25.70, -16.41, -26.46, -17.32, -26.58, -20.34, -27.76, -24.23, -18.95, -24.86, -23.76, -20.36, 0.000, 0.000, 0.000, 14:57:40.998
155, -29.24, -34.56, -19.45, -28.25, -25.77, -16.27, -26.35, -17.50, -26.58, -20.34, -27.76, -24.23, -18.95, -24.86, -23.76, -20.36, 0.000, 0.000, 0.000, 14:57:41.007
156, -29.24, -34.56, -19.45, -28.25, -25.77, -16.27, -26.35, -17.50, -26.62, -20.56, -27.67, -24.43, -18.89, -24.68, -23.85, -20.41, 0.000, 0.000, 0.000, 14:57:41.014
157, -29.26, -34.53, -19.58, -28.21, -25.50, -16.45, -26.33, -17.41, -26.62, -20.56, -27.67, -24.43, -18.89, -24.68, -23.85, -20.41, 0.000, 0.000, 0.000, 14:57:41.014
158, -29.26, -34.53, -19.58, -28.21, -25.50, -16.45, -26.33, -17.41, -26.51, -20.54, -27.81, -24.30, -19.07, -24.61, -23.76, -20.59, 0.000, 0.000, 0.000, 14:57:41.020
159, -29.35, -34.38, -19.27, -28.14, -25.70, -16.43, -26.53, -17.52, -26.51, -20.54, -27.81, -24.30, -19.07, -24.61, -23.76, -20.59, 0.000, 0.000, 0.000, 14:57:41.020
160, -29.35, -34.38, -19.27, -28.14, -25.70, -16.43, -26.53, -17.52, -26.71, -20.43, -27.78, -24.54, -19.09, -24.65, -23.80, -20.47, 0.000, 0.000, 0.000, 14:57:41.027
161, -29.26, -34.47, -19.45, -28.48, -25.82, -16.32, -26.49, -17.34, -26.71, -20.43, -27.78, -24.54, -19.09, -24.65, -23.80, -20.47, 0.000, 0.000, 0.000, 14:57:41.027
162, -29.26, -34.47, -19.45, -28.48, -25.82, -16.32, -26.49, -17.34, -26.62, -20.41, -27.81, -24.30, -18.95, -24.99, -23.69, -20.36, 0.000, 0.000, 0.000, 14:57:41.035
163, -29.12, -34.33, -19.40, -28.12, -25.73, -16.25, -26.35, -17.28, -26.62, -20.41, -27.81, -24.30, -18.95, -24.99, -23.69, -20.36, -0.114, 0.948, 0.136, 14:57:41.035
164, -29.12, -34.33, -19.40, -28.12, -25.73, -16.25, -26.35, -17.28, -26.67, -20.25, -27.74, -24.48, -19.00, -24.94, -23.58, -20.41, 0.000, 0.000, 0.000, 14:57:41.043
165, -29.19, -34.42, -19.36, -27.89, -25.39, -16.14, -26.35, -17.46, -26.67, -20.25, -27.74, -24.48, -19.00, -24.94, -23.58, -20.41, 0.000, 0.000, 0.000, 14:57:41.043
166, -29.19, -34.42, -19.36, -27.89, -25.39, -16.14, -26.35, -17.46, -26.73, -20.45, -27.78, -24.32, -19.11, -24.61, -23.72, -20.47, 0.000, 0.000, 0.000, 14:57:41.051
167, -29.39, -34.40, -19.51, -28.14, -25.57, -16.32, -26.31, -17.43, -26.73, -20.45, -27.78, -24.32, -19.11, -24.61, -23.72, -20.47, 0.000, 0.000, 0.000, 14:57:41.052
168, -29.39, -34.40, -19.51, -28.14, -25.57, -16.32, -26.31, -17.43, -26.64, -20.52, -27.67, -24.45, -19.07, -24.88, -23.65, -20.54, 0.000, 0.000, 0.000, 14:57:41.058
169, -29.35, -34.33, -19.42, -28.19, -25.53, -16.54, -26.49, -17.50, -26.64, -20.52, -27.67, -24.45, -19.07, -24.88, -23.65, -20.54, 0.000, 0.000, 0.000, 14:57:41.059
170, -29.35, -34.33, -19.42, -28.19, -25.53, -16.54, -26.49, -17.50, -26.89, -20.63, -27.83, -24.43, -18.95, -24.90, -23.80, -20.41, 0.000, 0.000, 0.000, 14:57:41.065
171, -29.37, -34.42, -19.36, -27.96, -25.48, -16.29, -26.24, -17.23, -26.89, -20.63, -27.83, -24.43, -18.95, -24.90, -23.80, -20.41, 0.000, 0.000, 0.000, 14:57:41.072
172, -29.37, -34.42, -19.36, -27.96, -25.48, -16.29, -26.24, -17.23, -26.64, -20.74, -27.60, -24.45, -19.13, -24.90, -23.96, -20.54, 0.000, 0.000, 0.000, 14:57:41.072
173, -29.48, -34.15, -19.42, -28.16, -25.39, -16.25, -26.53, -17.34, -26.64, -20.74, -27.60, -24.45, -19.13, -24.90, -23.96, -20.54, -0.112, 0.992, 0.132, 14:57:41.080
174, -29.48, -34.15, -19.42, -28.16, -25.39, -16.25, -26.53, -17.34, -26.53, -20.43, -27.56, -24.39, -19.02, -24.79, -23.89, -20.65, 0.000, 0.000, 0.000, 14:57:41.080
175, -29.17, -34.18, -19.47, -28.05, -25.57, -16.32, -26.31, -17.28, -26.53, -20.43, -27.56, -24.39, -19.02, -24.79, -23.89, -20.65, 0.000, 0.000, 0.000, 14:57:41.088
176, -29.17, -34.18, -19.47, -28.05, -25.57, -16.32, -26.31, -17.28, -26.55, -20.54, -27.69, -24.45, -18.98, -24.86, -23.83, -20.43, 0.000, 0.000, 0.000, 14:57:41.088
177, -29.37, -34.49, -19.36, -28.16, -25.59, -16.36, -26.33, -17.43, -26.55, -20.54, -27.69, -24.45, -18.98, -24.86, -23.83, -20.43, 0.000, 0.000, 0.000, 14:57:41.095
178, -29.37, -34.49, -19.36, -28.16, -25.59, -16.36, -26.33, -17.43, -26.58, -20.38, -27.69, -24.21, -18.91, -24.65, -23.67, -20.50, 0.000, 0.000, 0.000, 14:57:41.095
179, -29.50, -34.40, -19.13, -28.21, -25.68, -16.47, -26.49, -17.55, -26.58, -20.38, -27.69, -24.21, -18.91, -24.65, -23.67, -20.50, 0.000, 0.000, 0.000, 14:57:41.103
180, -29.50, -34.40, -19.13, -28.21, -25.68, -16.47, -26.49, -17.55, -26.51, -20.61, -27.81, -24.34, -19.24, -24.70, -23.92, -20.41, 0.000, 0.000, 0.000, 14:57:41.103
181, -29.44, -34.24, -19.38, -28.39, -25.66, -16.41, -26.53, -17.48, -26.51, -20.61, -27.81, -24.34, -19.24, -24.70, -23.92, -20.41, 0.000, 0.000, 0.000, 14:57:41.110
182, -29.44, -34.24, -19.38, -28.39, -25.66, -16.41, -26.53, -17.48, -26.38, -20.70, -27.74, -24.52, -18.89, -24.92, -23.65, -20.45, 0.000, 0.000, 0.000, 14:57:41.110
183, -29.62, -34.31, -19.36, -28.01, -25.73, -16.36, -26.40, -17.50, -26.38, -20.70, -27.74, -24.52, -18.89, -24.92, -23.65, -20.45, -0.098, 0.968, 0.134, 14:57:41.118
184, -29.62, -34.31, -19.36, -28.01, -25.73, -16.36, -26.40, -17.50, -26.38, -20.74, -27.89, -24.65, -18.89, -24.90, -23.74, -20.27, 0.000, 0.000, 0.000, 14:57:41.118
185, -29.53, -34.18, -19.58, -28.16, -25.68, -16.43, -26.31, -17.50, -26.38, -20.74, -27.89, -24.65, -18.89, -24.90, -23.74, -20.27, 0.000, 0.000, 0.000, 14:57:41.125
186, -29.53, -34.18, -19.58, -28.16, -25.68, -16.43, -26.31, -17.50, -26.49, -20.70, -27.89, -24.45, -18.98, -24.68, -23.69, -20.41, 0.000, 0.000, 0.000, 14:57:41.126
187, -29.06, -34.49, -19.54, -28.10, -25.73, -16.32, -26.44, -17.39, -26.49, -20.70, -27.89, -24.45, -18.98, -24.68, -23.69, -20.41, 0.000, 0.000, 0.000, 14:57:41.133
188, -29.06, -34.49, -19.54, -28.10, -25.73, -16.32, -26.44, -17.39, -26.46, -20.56, -28.05, -24.50, -19.02, -24.79, -23.69, -20.52, 0.000, 0.000, 0.000, 14:57:41.141
189, -29.15, -34.24, -19.40, -27.81, -25.77, -16.29, -26.42, -17.68, -26.46, -20.56, -28.05, -24.50, -19.02, -24.79, -23.69, -20.52, 0.000, 0.000, 0.000, 14:57:41.141
190, -29.15, -34.24, -19.40, -27.81, -25.77, -16.29, -26.42, -17.68, -26.55, -20.65, -27.89, -24.39, -19.04, -24.92, -23.80, -20.54, 0.000, 0.000, 0.000, 14:57:41.148
191, -29.12, -34.42, -19.27, -28.05, -25.48, -16.43, -26.51, -17.52, -26.55, -20.65, -27.89, -24.39, -19.04, -24.92, -23.80, -20.54, 0.000, 0.000, 0.000, 14:57:41.148
192, -29.12, -34.42, -19.27, -28.05, -25.48, -16.43, -26.51, -17.52, -26.71, -20.47, -27.69, -24.36, -18.95, -24.70, -23.76, -20.32, 0.000, 0.000, 0.000, 14:57:41.156
193, -29.10, -34.18, -19.38, -28.16, -25.73, -16.29, -26.40, -17.41, -26.71, -20.47, -27.69, -24.36, -18.95, -24.70, -23.76, -20.32, -0.096, 0.974, 0.136, 14:57:41.156
194, -29.10, -34.18, -19.38, -28.16, -25.73, -16.29, -26.40, -17.41, -26.76, -20.47, -27.67, -24.43, -18.86, -24.81, -23.76, -20.47, 0.000, 0.000, 0.000, 14:57:41.164
195, -29.39, -34.42, -19.22, -27.85, -25.77, -16.23, -26.38, -17.19, -26.76, -20.47, -27.67, -24.43, -18.86, -24.81, -23.76, -20.47, 0.000, 0.000, 0.000, 14:57:41.164
196, -29.39, -34.42, -19.22, -27.85, -25.77, -16.23, -26.38, -17.19, -26.69, -20.59, -27.78, -24.43, -18.91, -24.70, -23.85, -20.36, 0.000, 0.000, 0.000, 14:57:41.171
197, -29.35, -34.38, -19.29, -27.96, -25.53, -16.38, -26.17, -17.30, -26.69, -20.59, -27.78, -24.43, -18.91, -24.70, -23.85, -20.36, 0.000, 0.000, 0.000, 14:57:41.171
198, -29.35, -34.38, -19.29, -27.96, -25.53, -16.38, -26.17, -17.30, -26.64, -20.52, -28.01, -24.54, -18.95, -24.70, -23.94, -20.41, 0.000, 0.000, 0.000, 14:57:41.179
199, -29.30, -34.13, -19.42, -28.12, -25.46, -16.29, -26.49, -17.46, -26.64, -20.52, -28.01, -24.54, -18.95, -24.70, -23.94, -20.41, 0.000, 0.000, 0.000, 14:57:41.179
200, -29.30, -34.13, -19.42, -28.12, -25.46, -16.29, -26.49, -17.46, -26.58, -20.34, -27.96, -24.27, -19.07, -24.79, -23.80, -20.47, 0.000, 0.000, 0.000, 14:57:41.185
201, -29.30, -34.38, -19.38, -27.89, -25.84, -16.41, -26.29, -17.68, -26.58, -20.34, -27.96, -24.27, -19.07, -24.79, -23.80, -20.47, 0.000, 0.000, 0.000, 14:57:41.185
202, -29.30, -34.38, -19.38, -27.89, -25.84, -16.41, -26.29, -17.68, -26.60, -20.59, -27.83, -24.41, -19.16, -24.86, -23.63, -20.54, 0.000, 0.000, 0.000, 14:57:41.192
203, -29.37, -34.24, -19.45, -28.03, -25.70, -16.41, -26.60, -17.32, -26.60, -20.59, -27.83, -24.41, -19.16, -24.86, -23.63, -20.54, -0.094, 0.974, 0.152, 14:57:41.200
204, -29.37, -34.24, -19.45, -28.03, -25.70, -16.41, -26.60, -17.32, -26.78, -20.50, -27.83, -24.34, -19.20, -24.74, -23.80, -20.56, 0.000, 0.000, 0.000, 14:57:41.200
205, -29.46, -34.42, -19.40, -27.94, -25.59, -16.43, -26.46, -17.39, -26.78, -20.50, -27.83, -24.34, -19.20, -24.74, -23.80, -20.56, 0.000, 0.000, 0.000, 14:57:41.208
206, -29.46, -34.42, -19.40, -27.94, -25.59, -16.43, -26.46, -17.39, -26.62, -20.59, -27.89, -24.45, -18.95, -24.99, -23.49, -20.52, 0.000, 0.000, 0.000, 14:57:41.208
207, -29.44, -34.42, -19.31, -28.05, -25.50, -16.12, -26.49, -17.41, -26.62, -20.59, -27.89, -24.45, -18.95, -24.99, -23.49, -20.52, 0.000, 0.000, 0.000, 14:57:41.223
208, -29.44, -34.42, -19.31, -28.05, -25.50, -16.12, -26.49, -17.41, -26.69, -20.56, -27.81, -24.34, -18.80, -24.88, -23.74, -20.47, 0.000, 0.000, 0.000, 14:57:41.223
