%OpenBCI Raw EEG Data
%
%Sample Rate = 250.0 Hz
%First Column = SampleIndex
%Other Columns = EEG data in microvolts with optional columns at end being unscaled Aux data
179279, -37022.55, -53840.30, 0.00, 0.00, 0.00, 0.00, 0.00, 0.00, 0
179280, -37049.71, -53986.99, 0.00, 0.00, 0.00, 0.00, 0.00, 0.00, 0
179281, -37066.16, -53964.98, 0.00, 0.00, 0.00, 0.00, 0.00, 0.00, 0
179282, -37047.21, -53854.78, 0.00, 0.00, 0.00, 0.00, 0.00, 0.00, 0
179283, -37032.88, -53879.77, 0.00, 0.00, 0.00, 0.00, 0.00, 0.00, 0
179284, -37051.28, -53996.76, 0.00, 0.00, 0.00, 0.00, 0.00, 0.00, 0
179285, -37069.72, -53998.15, 0.00, 0.00, 0.00, 0.00, 0.00, 0.00, 0
179286, -37055.41, -53885.98, 0.00, 0.00, 0.00, 0.00, 0.00, 0.00, 0
179287, -37036.04, -53866.05, 0.00, 0.00, 0.00, 0.00, 0.00, 0.00, 0
179288, -37048.11, -53984.63, 0.00, 0.00, 0.00, 0.00, 0.00, 0.00, 0
179289, -37070.64, -54011.07, 0.00, 0.00, 0.00, 0.00, 0.00, 0.00, 0
179290, -37059.62, -53874.81, 0.00, 0.00, 0.00, 0.00, 0.00, 0.00, 0
179291, -37037.44, -53817.68, 0.00, 0.00, 0.00, 0.00, 0.00, 0.00, 0
179292, -37043.23, -53949.00, 0.00, 0.00, 0.00, 0.00, 0.00, 0.00, 0
179293, -37066.23, -54017.82, 0.00, 0.00, 0.00, 0.00, 0.00, 0.00, 0
179294, -37068.11, -53918.30, 0.00, 0.00, 0.00, 0.00, 0.00, 0.00, 0
179295, -37045.89, -53837.13, 0.00, 0.00, 0.00, 0.00, 0.00, 0.00, 0
179296, -37042.79, -53915.78, 0.00, 0.00, 0.00, 0.00, 0.00, 0.00, 0
179297, -37064.87, -54007.13, 0.00, 0.00, 0.00, 0.00, 0.00, 0.00, 0
179298, -37071.39, -53937.84, 0.00, 0.00, 0.00, 0.00, 0.00, 0.00, 0
179299, -37051.91, -53839.43, 0.00, 0.00, 0.00, 0.00, 0.00, 0.00, 0
179300, -37050.16, -53909.48, 0.00, 0.00, 0.00, 0.00, 0.00, 0.00, 0
179301, -37074.23, -54013.61, 0.00, 0.00, 0.00, 0.00, 0.00, 0.00, 0
179302, -37082.26, -53955.28, 0.00, 0.00, 0.00, 0.00, 0.00, 0.00, 0
179303, -37058.48, -53850.49, 0.00, 0.00, 0.00, 0.00, 0.00, 0.00, 0
179304, -37042.45, -53877.00, 0.00, 0.00, 0.00, 0.00, 0.00, 0.00, 0
179305, -37061.63, -53988.56, 0.00, 0.00, 0.00, 0.00, 0.00, 0.00, 0
179306, -37073.03, -53972.02, 0.00, 0.00, 0.00, 0.00, 0.00, 0.00, 0
179307, -37050.21, -53850.67, 0.00, 0.00, 0.00, 0.00, 0.00, 0.00, 0
179308, -37031.59, -53863.93, 0.00, 0.00, 0.00, 0.00, 0.00, 0.00, 0
179309, -37047.81, -53990.35, 0.00, 0.00, 0.00, 0.00, 0.00, 0.00, 0
179310, -37068.76, -53997.34, 0.00, 0.00, 0.00, 0.00, 0.00, 0.00, 0
179311, -37058.88, -53881.27, 0.00, 0.00, 0.00, 0.00, 0.00, 0.00, 0
179312, -37032.86, -53838.46, 0.00, 0.00, 0.00, 0.00, 0.00, 0.00, 0
179313, -37041.62, -53953.24, 0.00, 0.00, 0.00, 0.00, 0.00, 0.00, 0
179314, -37068.27, -54005.75, 0.00, 0.00, 0.00, 0.00, 0.00, 0.00, 0
179315, -37061.94, -53886.66, 0.00, 0.00, 0.00, 0.00, 0.00, 0.00, 0
179316, -37036.37, -53822.35, 0.00, 0.00, 0.00, 0.00, 0.00, 0.00, 0
179317, -37037.75, -53934.71, 0.00, 0.00, 0.00, 0.00, 0.00, 0.00, 0
179318, -37061.70, -54002.10, 0.00, 0.00, 0.00, 0.00, 0.00, 0.00, 0
179319, -37061.36, -53899.91, 0.00, 0.00, 0.00, 0.00, 0.00, 0.00, 0
179320, -37044.59, -53820.36, 0.00, 0.00, 0.00, 0.00, 0.00, 0.00, 0
179321, -37039.99, -53909.95, 0.00, 0.00, 0.00, 0.00, 0.00, 0.00, 0
179322, -37049.45, -54004.70, 0.00, 0.00, 0.00, 0.00, 0.00, 0.00, 0
179323, -37049.94, -53930.09, 0.00, 0.00, 0.00, 0.00, 0.00, 0.00, 0
179324, -37027.18, -53822.26, 0.00, 0.00, 0.00, 0.00, 0.00, 0.00, 0
179325, -37017.15, -53877.27, 0.00, 0.00, 0.00, 0.00, 0.00, 0.00, 0
179326, -37032.30, -53977.36, 0.00, 0.00, 0.00, 0.00, 0.00, 0.00, 0
179327, -37040.15, -53946.40, 0.00, 0.00, 0.00, 0.00, 0.00, 0.00, 0
179328, -37020.37, -53835.70, 0.00, 0.00, 0.00, 0.00, 0.00, 0.00, 0
179329, -37011.07, -53864.64, 0.00, 0.00, 0.00, 0.00, 0.00, 0.00, 0
179330, -37034.31, -53993.63, 0.00, 0.00, 0.00, 0.00, 0.00, 0.00, 0
179331, -37052.93, -53978.41, 0.00, 0.00, 0.00, 0.00, 0.00, 0.00, 0
179332, -37034.29, -53853.24, 0.00, 0.00, 0.00, 0.00, 0.00, 0.00, 0
179333, -37012.86, -53863.25, 0.00, 0.00, 0.00, 0.00, 0.00, 0.00, 0
179334, -37031.36, -53984.69, 0.00, 0.00, 0.00, 0.00, 0.00, 0.00, 0
179335, -37055.70, -53990.77, 0.00, 0.00, 0.00, 0.00, 0.00, 0.00, 0
179336, -37037.82, -53861.24, 0.00, 0.00, 0.00, 0.00, 0.00, 0.00, 0
179337, -37013.13, -53825.41, 0.00, 0.00, 0.00, 0.00, 0.00, 0.00, 0
179338, -37023.59, -53943.25, 0.00, 0.00, 0.00, 0.00, 0.00, 0.00, 0
179339, -37043.75, -53972.66, 0.00, 0.00, 0.00, 0.00, 0.00, 0.00, 0
179340, -37035.90, -53846.96, 0.00, 0.00, 0.00, 0.00, 0.00, 0.00, 0
179341, -37014.73, -53802.91, 0.00, 0.00, 0.00, 0.00, 0.00, 0.00, 0
179342, -37021.89, -53927.18, 0.00, 0.00, 0.00, 0.00, 0.00, 0.00, 0
179343, -37044.91, -54009.95, 0.00, 0.00, 0.00, 0.00, 0.00, 0.00, 0
179344, -37038.47, -53906.97, 0.00, 0.00, 0.00, 0.00, 0.00, 0.00, 0
179345, -37013.28, -53807.24, 0.00, 0.00, 0.00, 0.00, 0.00, 0.00, 0
179346, -37009.59, -53886.43, 0.00, 0.00, 0.00, 0.00, 0.00, 0.00, 0
179347, -37030.20, -53972.40, 0.00, 0.00, 0.00, 0.00, 0.00, 0.00, 0
179348, -37035.57, -53894.10, 0.00, 0.00, 0.00, 0.00, 0.00, 0.00, 0
179349, -37014.69, -53812.67, 0.00, 0.00, 0.00, 0.00, 0.00, 0.00, 0
179350, -37004.23, -53881.09, 0.00, 0.00, 0.00, 0.00, 0.00, 0.00, 0
179351, -37022.85, -53987.82, 0.00, 0.00, 0.00, 0.00, 0.00, 0.00, 0
179352, -37035.54, -53948.75, 0.00, 0.00, 0.00, 0.00, 0.00, 0.00, 0
179353, -37012.92, -53825.79, 0.00, 0.00, 0.00, 0.00, 0.00, 0.00, 0
179354, -36993.90, -53848.93, 0.00, 0.00, 0.00, 0.00, 0.00, 0.00, 0
179355, -37011.27, -53976.15, 0.00, 0.00, 0.00, 0.00, 0.00, 0.00, 0
179356, -37028.66, -53959.50, 0.00, 0.00, 0.00, 0.00, 0.00, 0.00, 0
179357, -37012.79, -53835.20, 0.00, 0.00, 0.00, 0.00, 0.00, 0.00, 0
179358, -36996.16, -53838.04, 0.00, 0.00, 0.00, 0.00, 0.00, 0.00, 0
179359, -37010.24, -53972.22, 0.00, 0.00, 0.00, 0.00, 0.00, 0.00, 0
179360, -37032.64, -53986.70, 0.00, 0.00, 0.00, 0.00, 0.00, 0.00, 0
179361, -37021.24, -53858.52, 0.00, 0.00, 0.00, 0.00, 0.00, 0.00, 0
179362, -36997.88, -53816.27, 0.00, 0.00, 0.00, 0.00, 0.00, 0.00, 0
179363, -37006.64, -53934.67, 0.00, 0.00, 0.00, 0.00, 0.00, 0.00, 0
179364, -37032.39, -53987.33, 0.00, 0.00, 0.00, 0.00, 0.00, 0.00, 0
179365, -37027.92, -53869.07, 0.00, 0.00, 0.00, 0.00, 0.00, 0.00, 0
179366, -37010.51, -53788.53, 0.00, 0.00, 0.00, 0.00, 0.00, 0.00, 0
179367, -37013.79, -53894.50, 0.00, 0.00, 0.00, 0.00, 0.00, 0.00, 0
179368, -37034.43, -53978.54, 0.00, 0.00, 0.00, 0.00, 0.00, 0.00, 0
179369, -37030.94, -53879.93, 0.00, 0.00, 0.00, 0.00, 0.00, 0.00, 0
179370, -37013.08, -53783.08, 0.00, 0.00, 0.00, 0.00, 0.00, 0.00, 0
179371, -37022.02, -53884.18, 0.00, 0.00, 0.00, 0.00, 0.00, 0.00, 0
179372, -37046.92, -53989.45, 0.00, 0.00, 0.00, 0.00, 0.00, 0.00, 0
179373, -37029.48, -53916.63, 0.00, 0.00, 0.00, 0.00, 0.00, 0.00, 0
179374, -36999.27, -53809.68, 0.00, 0.00, 0.00, 0.00, 0.00, 0.00, 0
179375, -36987.53, -53857.67, 0.00, 0.00, 0.00, 0.00, 0.00, 0.00, 0
179376, -37000.65, -53976.71, 0.00, 0.00, 0.00, 0.00, 0.00, 0.00, 0
179377, -36998.91, -53953.15, 0.00, 0.00, 0.00, 0.00, 0.00, 0.00, 0
179378, -36972.67, -53824.92, 0.00, 0.00, 0.00, 0.00, 0.00, 0.00, 0
179379, -36950.18, -53845.93, 0.00, 0.00, 0.00, 0.00, 0.00, 0.00, 0
179380, -36962.16, -53970.23, 0.00, 0.00, 0.00, 0.00, 0.00, 0.00, 0
179381, -36973.90, -53966.09, 0.00, 0.00, 0.00, 0.00, 0.00, 0.00, 0
179382, -36958.81, -53843.38, 0.00, 0.00, 0.00, 0.00, 0.00, 0.00, 0
179383, -36946.36, -53821.39, 0.00, 0.00, 0.00, 0.00, 0.00, 0.00, 0
179384, -36963.44, -53932.34, 0.00, 0.00, 0.00, 0.00, 0.00, 0.00, 0
179385, -36986.68, -53950.31, 0.00, 0.00, 0.00, 0.00, 0.00, 0.00, 0
179386, -36979.80, -53831.05, 0.00, 0.00, 0.00, 0.00, 0.00, 0.00, 0
179387, -36957.38, -53790.50, 0.00, 0.00, 0.00, 0.00, 0.00, 0.00, 0
179388, -36966.86, -53913.86, 0.00, 0.00, 0.00, 0.00, 0.00, 0.00, 0
179389, -36989.05, -53973.05, 0.00, 0.00, 0.00, 0.00, 0.00, 0.00, 0
179390, -36982.97, -53873.63, 0.00, 0.00, 0.00, 0.00, 0.00, 0.00, 0
179391, -36966.61, -53796.71, 0.00, 0.00, 0.00, 0.00, 0.00, 0.00, 0
179392, -36969.70, -53878.41, 0.00, 0.00, 0.00, 0.00, 0.00, 0.00, 0
179393, -36989.54, -53953.02, 0.00, 0.00, 0.00, 0.00, 0.00, 0.00, 0
179394, -36991.69, -53885.61, 0.00, 0.00, 0.00, 0.00, 0.00, 0.00, 0
179395, -36968.80, -53790.45, 0.00, 0.00, 0.00, 0.00, 0.00, 0.00, 0
179396, -36961.78, -53854.98, 0.00, 0.00, 0.00, 0.00, 0.00, 0.00, 0
179397, -36984.00, -53962.07, 0.00, 0.00, 0.00, 0.00, 0.00, 0.00, 0
179398, -36990.82, -53912.72, 0.00, 0.00, 0.00, 0.00, 0.00, 0.00, 0
179399, -36969.34, -53805.03, 0.00, 0.00, 0.00, 0.00, 0.00, 0.00, 0
179400, -36963.91, -53853.78, 0.00, 0.00, 0.00, 0.00, 0.00, 0.00, 0
179401, -36990.93, -53962.63, 0.00, 0.00, 0.00, 0.00, 0.00, 0.00, 0
179402, -37003.80, -53923.29, 0.00, 0.00, 0.00, 0.00, 0.00, 0.00, 0
179403, -36984.45, -53803.24, 0.00, 0.00, 0.00, 0.00, 0.00, 0.00, 0
179404, -36970.84, -53826.66, 0.00, 0.00, 0.00, 0.00, 0.00, 0.00, 0
179405, -36989.43, -53948.35, 0.00, 0.00, 0.00, 0.00, 0.00, 0.00, 0
179406, -37004.12, -53940.19, 0.00, 0.00, 0.00, 0.00, 0.00, 0.00, 0
179407, -36988.70, -53810.75, 0.00, 0.00, 0.00, 0.00, 0.00, 0.00, 0
179408, -36969.11, -53809.23, 0.00, 0.00, 0.00, 0.00, 0.00, 0.00, 0
179409, -36982.19, -53940.50, 0.00, 0.00, 0.00, 0.00, 0.00, 0.00, 0
179410, -37003.18, -53967.17, 0.00, 0.00, 0.00, 0.00, 0.00, 0.00, 0
179411, -36993.81, -53844.12, 0.00, 0.00, 0.00, 0.00, 0.00, 0.00, 0
179412, -36973.52, -53792.98, 0.00, 0.00, 0.00, 0.00, 0.00, 0.00, 0
179413, -36981.83, -53913.68, 0.00, 0.00, 0.00, 0.00, 0.00, 0.00, 0
179414, -37002.73, -53962.68, 0.00, 0.00, 0.00, 0.00, 0.00, 0.00, 0
179415, -36999.11, -53858.76, 0.00, 0.00, 0.00, 0.00, 0.00, 0.00, 0
179416, -36978.19, -53787.59, 0.00, 0.00, 0.00, 0.00, 0.00, 0.00, 0
179417, -36977.25, -53882.28, 0.00, 0.00, 0.00, 0.00, 0.00, 0.00, 0
179418, -36996.92, -53976.13, 0.00, 0.00, 0.00, 0.00, 0.00, 0.00, 0
179419, -36996.74, -53896.69, 0.00, 0.00, 0.00, 0.00, 0.00, 0.00, 0
179420, -36975.19, -53808.07, 0.00, 0.00, 0.00, 0.00, 0.00, 0.00, 0
179421, -36966.01, -53867.86, 0.00, 0.00, 0.00, 0.00, 0.00, 0.00, 0
179422, -36987.26, -53957.27, 0.00, 0.00, 0.00, 0.00, 0.00, 0.00, 0
179423, -36996.47, -53898.48, 0.00, 0.00, 0.00, 0.00, 0.00, 0.00, 0
179424, -36975.73, -53780.75, 0.00, 0.00, 0.00, 0.00, 0.00, 0.00, 0
179425, -36964.13, -53820.38, 0.00, 0.00, 0.00, 0.00, 0.00, 0.00, 0
179426, -36988.56, -53936.19, 0.00, 0.00, 0.00, 0.00, 0.00, 0.00, 0
179427, -37004.47, -53921.73, 0.00, 0.00, 0.00, 0.00, 0.00, 0.00, 0
179428, -36985.92, -53812.32, 0.00, 0.00, 0.00, 0.00, 0.00, 0.00, 0
179429, -36968.87, -53832.41, 0.00, 0.00, 0.00, 0.00, 0.00, 0.00, 0
179430, -36985.36, -53949.75, 0.00, 0.00, 0.00, 0.00, 0.00, 0.00, 0
179431, -37006.46, -53945.98, 0.00, 0.00, 0.00, 0.00, 0.00, 0.00, 0
179432, -36995.18, -53832.72, 0.00, 0.00, 0.00, 0.00, 0.00, 0.00, 0
179433, -36972.89, -53818.39, 0.00, 0.00, 0.00, 0.00, 0.00, 0.00, 0
179434, -36978.84, -53934.11, 0.00, 0.00, 0.00, 0.00, 0.00, 0.00, 0
179435, -36997.66, -53963.95, 0.00, 0.00, 0.00, 0.00, 0.00, 0.00, 0
179436, -36987.33, -53841.13, 0.00, 0.00, 0.00, 0.00, 0.00, 0.00, 0
179437, -36965.71, -53778.65, 0.00, 0.00, 0.00, 0.00, 0.00, 0.00, 0
179438, -36970.72, -53872.44, 0.00, 0.00, 0.00, 0.00, 0.00, 0.00, 0
179439, -36993.23, -53942.85, 0.00, 0.00, 0.00, 0.00, 0.00, 0.00, 0
179440, -36994.50, -53867.08, 0.00, 0.00, 0.00, 0.00, 0.00, 0.00, 0
179441, -36971.17, -53805.32, 0.00, 0.00, 0.00, 0.00, 0.00, 0.00, 0
179442, -36966.99, -53887.24, 0.00, 0.00, 0.00, 0.00, 0.00, 0.00, 0
179443, -36988.83, -53956.15, 0.00, 0.00, 0.00, 0.00, 0.00, 0.00, 0
179444, -36990.30, -53883.32, 0.00, 0.00, 0.00, 0.00, 0.00, 0.00, 0
179445, -36965.85, -53785.58, 0.00, 0.00, 0.00, 0.00, 0.00, 0.00, 0
179446, -36958.38, -53838.20, 0.00, 0.00, 0.00, 0.00, 0.00, 0.00, 0
179447, -36978.32, -53950.58, 0.00, 0.00, 0.00, 0.00, 0.00, 0.00, 0
179448, -36986.04, -53920.21, 0.00, 0.00, 0.00, 0.00, 0.00, 0.00, 0
179449, -36964.13, -53798.50, 0.00, 0.00, 0.00, 0.00, 0.00, 0.00, 0
179450, -36955.19, -53808.40, 0.00, 0.00, 0.00, 0.00, 0.00, 0.00, 0
179451, -36973.52, -53930.46, 0.00, 0.00, 0.00, 0.00, 0.00, 0.00, 0
179452, -36992.61, -53938.76, 0.00, 0.00, 0.00, 0.00, 0.00, 0.00, 0
179453, -36979.42, -53808.52, 0.00, 0.00, 0.00, 0.00, 0.00, 0.00, 0
179454, -36968.35, -53808.07, 0.00, 0.00, 0.00, 0.00, 0.00, 0.00, 0
179455, -36987.06, -53939.16, 0.00, 0.00, 0.00, 0.00, 0.00, 0.00, 0
179456, -37001.10, -53946.63, 0.00, 0.00, 0.00, 0.00, 0.00, 0.00, 0
179457, -36983.06, -53808.18, 0.00, 0.00, 0.00, 0.00, 0.00, 0.00, 0
179458, -36956.06, -53766.54, 0.00, 0.00, 0.00, 0.00, 0.00, 0.00, 0
179459, -36967.59, -53895.02, 0.00, 0.00, 0.00, 0.00, 0.00, 0.00, 0
179460, -36989.83, -53941.80, 0.00, 0.00, 0.00, 0.00, 0.00, 0.00, 0
179461, -36984.63, -53839.83, 0.00, 0.00, 0.00, 0.00, 0.00, 0.00, 0
179462, -36964.93, -53772.84, 0.00, 0.00, 0.00, 0.00, 0.00, 0.00, 0
179463, -36968.67, -53863.59, 0.00, 0.00, 0.00, 0.00, 0.00, 0.00, 0
179464, -36995.93, -53943.56, 0.00, 0.00, 0.00, 0.00, 0.00, 0.00, 0
179465, -36995.40, -53864.48, 0.00, 0.00, 0.00, 0.00, 0.00, 0.00, 0
179466, -36972.96, -53779.93, 0.00, 0.00, 0.00, 0.00, 0.00, 0.00, 0
179467, -36969.89, -53858.56, 0.00, 0.00, 0.00, 0.00, 0.00, 0.00, 0
179468, -36993.52, -53945.42, 0.00, 0.00, 0.00, 0.00, 0.00, 0.00, 0
179469, -37000.25, -53879.10, 0.00, 0.00, 0.00, 0.00, 0.00, 0.00, 0
179470, -36976.40, -53780.64, 0.00, 0.00, 0.00, 0.00, 0.00, 0.00, 0
179471, -36967.08, -53841.26, 0.00, 0.00, 0.00, 0.00, 0.00, 0.00, 0
179472, -36990.50, -53949.06, 0.00, 0.00, 0.00, 0.00, 0.00, 0.00, 0
179473, -37000.63, -53902.62, 0.00, 0.00, 0.00, 0.00, 0.00, 0.00, 0
179474, -36980.38, -53787.08, 0.00, 0.00, 0.00, 0.00, 0.00, 0.00, 0
179475, -36967.75, -53807.78, 0.00, 0.00, 0.00, 0.00, 0.00, 0.00, 0
179476, -36984.56, -53916.07, 0.00, 0.00, 0.00, 0.00, 0.00, 0.00, 0
179477, -36997.70, -53921.55, 0.00, 0.00, 0.00, 0.00, 0.00, 0.00, 0
179478, -36984.65, -53823.76, 0.00, 0.00, 0.00, 0.00, 0.00, 0.00, 0
179479, -36967.86, -53812.70, 0.00, 0.00, 0.00, 0.00, 0.00, 0.00, 0
179480, -36983.95, -53927.52, 0.00, 0.00, 0.00, 0.00, 0.00, 0.00, 0
179481, -37008.36, -53947.18, 0.00, 0.00, 0.00, 0.00, 0.00, 0.00, 0
179482, -37003.25, -53830.73, 0.00, 0.00, 0.00, 0.00, 0.00, 0.00, 0
179483, -36971.93, -53782.72, 0.00, 0.00, 0.00, 0.00, 0.00, 0.00, 0
179484, -36964.57, -53884.04, 0.00, 0.00, 0.00, 0.00, 0.00, 0.00, 0
179485, -36981.21, -53929.17, 0.00, 0.00, 0.00, 0.00, 0.00, 0.00, 0
179486, -36973.11, -53821.48, 0.00, 0.00, 0.00, 0.00, 0.00, 0.00, 0
179487, -36950.38, -53765.15, 0.00, 0.00, 0.00, 0.00, 0.00, 0.00, 0
179488, -36954.45, -53875.48, 0.00, 0.00, 0.00, 0.00, 0.00, 0.00, 0
179489, -36975.19, -53948.64, 0.00, 0.00, 0.00, 0.00, 0.00, 0.00, 0
179490, -36974.05, -53852.10, 0.00, 0.00, 0.00, 0.00, 0.00, 0.00, 0
179491, -36952.57, -53762.11, 0.00, 0.00, 0.00, 0.00, 0.00, 0.00, 0
179492, -36948.82, -53842.64, 0.00, 0.00, 0.00, 0.00, 0.00, 0.00, 0
179493, -36971.82, -53914.80, 0.00, 0.00, 0.00, 0.00, 0.00, 0.00, 0
179494, -36974.28, -53851.52, 0.00, 0.00, 0.00, 0.00, 0.00, 0.00, 0
179495, -36956.60, -53769.33, 0.00, 0.00, 0.00, 0.00, 0.00, 0.00, 0
179496, -36947.23, -53830.69, 0.00, 0.00, 0.00, 0.00, 0.00, 0.00, 0
179497, -36969.45, -53938.40, 0.00, 0.00, 0.00, 0.00, 0.00, 0.00, 0
179498, -36985.68, -53899.64, 0.00, 0.00, 0.00, 0.00, 0.00, 0.00, 0
179499, -36969.34, -53790.61, 0.00, 0.00, 0.00, 0.00, 0.00, 0.00, 0
179500, -36956.29, -53808.36, 0.00, 0.00, 0.00, 0.00, 0.00, 0.00, 0
179501, -36972.78, -53909.54, 0.00, 0.00, 0.00, 0.00, 0.00, 0.00, 0
179502, -36983.24, -53902.01, 0.00, 0.00, 0.00, 0.00, 0.00, 0.00, 0
179503, -36965.76, -53785.52, 0.00, 0.00, 0.00, 0.00, 0.00, 0.00, 0
179504, -36951.37, -53770.11, 0.00, 0.00, 0.00, 0.00, 0.00, 0.00, 0
179505, -36968.11, -53882.72, 0.00, 0.00, 0.00, 0.00, 0.00, 0.00, 0
179506, -36988.11, -53911.20, 0.00, 0.00, 0.00, 0.00, 0.00, 0.00, 0
179507, -36974.32, -53803.80, 0.00, 0.00, 0.00, 0.00, 0.00, 0.00, 0
179508, -36954.41, -53769.51, 0.00, 0.00, 0.00, 0.00, 0.00, 0.00, 0
179509, -36959.41, -53870.81, 0.00, 0.00, 0.00, 0.00, 0.00, 0.00, 0
179510, -36980.89, -53911.33, 0.00, 0.00, 0.00, 0.00, 0.00, 0.00, 0
179511, -36978.90, -53810.35, 0.00, 0.00, 0.00, 0.00, 0.00, 0.00, 0
179512, -36956.21, -53736.32, 0.00, 0.00, 0.00, 0.00, 0.00, 0.00, 0
179513, -36954.90, -53828.07, 0.00, 0.00, 0.00, 0.00, 0.00, 0.00, 0
179514, -36977.09, -53913.57, 0.00, 0.00, 0.00, 0.00, 0.00, 0.00, 0
179515, -36979.15, -53842.15, 0.00, 0.00, 0.00, 0.00, 0.00, 0.00, 0
179516, -36955.73, -53756.95, 0.00, 0.00, 0.00, 0.00, 0.00, 0.00, 0
179517, -36948.73, -53837.13, 0.00, 0.00, 0.00, 0.00, 0.00, 0.00, 0
179518, -36969.76, -53925.06, 0.00, 0.00, 0.00, 0.00, 0.00, 0.00, 0
179519, -36978.99, -53864.11, 0.00, 0.00, 0.00, 0.00, 0.00, 0.00, 0
179520, -36961.78, -53766.85, 0.00, 0.00, 0.00, 0.00, 0.00, 0.00, 0
179521, -36950.92, -53819.02, 0.00, 0.00, 0.00, 0.00, 0.00, 0.00, 0
179522, -36969.98, -53918.60, 0.00, 0.00, 0.00, 0.00, 0.00, 0.00, 0
179523, -36983.57, -53872.42, 0.00, 0.00, 0.00, 0.00, 0.00, 0.00, 0
179524, -36961.87, -53768.44, 0.00, 0.00, 0.00, 0.00, 0.00, 0.00, 0
179525, -36943.18, -53802.26, 0.00, 0.00, 0.00, 0.00, 0.00, 0.00, 0
179526, -36961.13, -53920.92, 0.00, 0.00, 0.00, 0.00, 0.00, 0.00, 0
179527, -36980.09, -53916.72, 0.00, 0.00, 0.00, 0.00, 0.00, 0.00, 0
179528, -36968.31, -53796.87, 0.00, 0.00, 0.00, 0.00, 0.00, 0.00, 0
179529, -36951.72, -53778.99, 0.00, 0.00, 0.00, 0.00, 0.00, 0.00, 0
179530, -36958.47, -53884.53, 0.00, 0.00, 0.00, 0.00, 0.00, 0.00, 0
179531, -36978.34, -53901.81, 0.00, 0.00, 0.00, 0.00, 0.00, 0.00, 0
179532, -36972.22, -53798.48, 0.00, 0.00, 0.00, 0.00, 0.00, 0.00, 0
179533, -36950.58, -53772.13, 0.00, 0.00, 0.00, 0.00, 0.00, 0.00, 0
179534, -36948.30, -53868.69, 0.00, 0.00, 0.00, 0.00, 0.00, 0.00, 0
179535, -36969.63, -53909.43, 0.00, 0.00, 0.00, 0.00, 0.00, 0.00, 0
179536, -36969.43, -53810.95, 0.00, 0.00, 0.00, 0.00, 0.00, 0.00, 0
179537, -36948.48, -53761.87, 0.00, 0.00, 0.00, 0.00, 0.00, 0.00, 0
179538, -36948.10, -53854.49, 0.00, 0.00, 0.00, 0.00, 0.00, 0.00, 0
179539, -36972.60, -53925.97, 0.00, 0.00, 0.00, 0.00, 0.00, 0.00, 0
179540, -36975.77, -53845.66, 0.00, 0.00, 0.00, 0.00, 0.00, 0.00, 0
179541, -36955.30, -53759.68, 0.00, 0.00, 0.00, 0.00, 0.00, 0.00, 0
179542, -36947.41, -53826.06, 0.00, 0.00, 0.00, 0.00, 0.00, 0.00, 0
179543, -36967.46, -53923.00, 0.00, 0.00, 0.00, 0.00, 0.00, 0.00, 0
179544, -36972.73, -53863.86, 0.00, 0.00, 0.00, 0.00, 0.00, 0.00, 0
179545, -36951.07, -53752.01, 0.00, 0.00, 0.00, 0.00, 0.00, 0.00, 0
179546, -36934.56, -53780.89, 0.00, 0.00, 0.00, 0.00, 0.00, 0.00, 0
179547, -36952.93, -53889.81, 0.00, 0.00, 0.00, 0.00, 0.00, 0.00, 0
179548, -36968.15, -53871.43, 0.00, 0.00, 0.00, 0.00, 0.00, 0.00, 0
179549, -36952.33, -53767.36, 0.00, 0.00, 0.00, 0.00, 0.00, 0.00, 0
179550, -36939.43, -53786.03, 0.00, 0.00, 0.00, 0.00, 0.00, 0.00, 0
179551, -36954.34, -53902.88, 0.00, 0.00, 0.00, 0.00, 0.00, 0.00, 0
179552, -36970.01, -53914.91, 0.00, 0.00, 0.00, 0.00, 0.00, 0.00, 0
179553, -36957.91, -53800.16, 0.00, 0.00, 0.00, 0.00, 0.00, 0.00, 0
179554, -36942.22, -53776.53, 0.00, 0.00, 0.00, 0.00, 0.00, 0.00, 0
179555, -36954.99, -53884.60, 0.00, 0.00, 0.00, 0.00, 0.00, 0.00, 0
179556, -36977.03, -53916.81, 0.00, 0.00, 0.00, 0.00, 0.00, 0.00, 0
179557, -36962.12, -53805.14, 0.00, 0.00, 0.00, 0.00, 0.00, 0.00, 0
179558, -36936.84, -53727.80, 0.00, 0.00, 0.00, 0.00, 0.00, 0.00, 0
179559, -36942.14, -53824.88, 0.00, 0.00, 0.00, 0.00, 0.00, 0.00, 0
179560, -36964.57, -53921.37, 0.00, 0.00, 0.00, 0.00, 0.00, 0.00, 0
179561, -36963.32, -53844.77, 0.00, 0.00, 0.00, 0.00, 0.00, 0.00, 0
179562, -36942.27, -53769.11, 0.00, 0.00, 0.00, 0.00, 0.00, 0.00, 0
179563, -36939.81, -53839.50, 0.00, 0.00, 0.00, 0.00, 0.00, 0.00, 0
179564, -36961.49, -53916.12, 0.00, 0.00, 0.00, 0.00, 0.00, 0.00, 0
179565, -36970.19, -53862.02, 0.00, 0.00, 0.00, 0.00, 0.00, 0.00, 0
179566, -36950.14, -53765.46, 0.00, 0.00, 0.00, 0.00, 0.00, 0.00, 0
179567, -36939.95, -53811.75, 0.00, 0.00, 0.00, 0.00, 0.00, 0.00, 0
179568, -36960.80, -53904.94, 0.00, 0.00, 0.00, 0.00, 0.00, 0.00, 0
179569, -36970.19, -53868.86, 0.00, 0.00, 0.00, 0.00, 0.00, 0.00, 0
179570, -36948.41, -53772.73, 0.00, 0.00, 0.00, 0.00, 0.00, 0.00, 0
179571, -36933.98, -53804.47, 0.00, 0.00, 0.00, 0.00, 0.00, 0.00, 0
179572, -36953.00, -53893.88, 0.00, 0.00, 0.00, 0.00, 0.00, 0.00, 0
179573, -36968.06, -53870.07, 0.00, 0.00, 0.00, 0.00, 0.00, 0.00, 0
179574, -36950.94, -53775.66, 0.00, 0.00, 0.00, 0.00, 0.00, 0.00, 0
179575, -36931.83, -53778.79, 0.00, 0.00, 0.00, 0.00, 0.00, 0.00, 0
179576, -36946.20, -53888.42, 0.00, 0.00, 0.00, 0.00, 0.00, 0.00, 0
179577, -36965.29, -53910.62, 0.00, 0.00, 0.00, 0.00, 0.00, 0.00, 0
179578, -36954.85, -53802.93, 0.00, 0.00, 0.00, 0.00, 0.00, 0.00, 0
179579, -36936.97, -53768.08, 0.00, 0.00, 0.00, 0.00, 0.00, 0.00, 0
179580, -36946.65, -53862.96, 0.00, 0.00, 0.00, 0.00, 0.00, 0.00, 0
179581, -36970.48, -53898.26, 0.00, 0.00, 0.00, 0.00, 0.00, 0.00, 0
179582, -36964.22, -53798.73, 0.00, 0.00, 0.00, 0.00, 0.00, 0.00, 0
179583, -36938.52, -53739.78, 0.00, 0.00, 0.00, 0.00, 0.00, 0.00, 0
179584, -36944.21, -53842.98, 0.00, 0.00, 0.00, 0.00, 0.00, 0.00, 0
179585, -36969.88, -53917.14, 0.00, 0.00, 0.00, 0.00, 0.00, 0.00, 0
179586, -36968.78, -53840.16, 0.00, 0.00, 0.00, 0.00, 0.00, 0.00, 0
179587, -36948.08, -53759.45, 0.00, 0.00, 0.00, 0.00, 0.00, 0.00, 0
179588, -36941.31, -53827.07, 0.00, 0.00, 0.00, 0.00, 0.00, 0.00, 0
179589, -36957.40, -53909.99, 0.00, 0.00, 0.00, 0.00, 0.00, 0.00, 0
179590, -36964.60, -53846.11, 0.00, 0.00, 0.00, 0.00, 0.00, 0.00, 0
179591, -36945.33, -53747.67, 0.00, 0.00, 0.00, 0.00, 0.00, 0.00, 0
179592, -36935.30, -53784.69, 0.00, 0.00, 0.00, 0.00, 0.00, 0.00, 0
179593, -36954.99, -53897.88, 0.00, 0.00, 0.00, 0.00, 0.00, 0.00, 0
179594, -36966.59, -53882.77, 0.00, 0.00, 0.00, 0.00, 0.00, 0.00, 0
179595, -36947.97, -53768.08, 0.00, 0.00, 0.00, 0.00, 0.00, 0.00, 0
179596, -36939.39, -53775.23, 0.00, 0.00, 0.00, 0.00, 0.00, 0.00, 0
179597, -36960.64, -53887.80, 0.00, 0.00, 0.00, 0.00, 0.00, 0.00, 0
179598, -36967.41, -53892.47, 0.00, 0.00, 0.00, 0.00, 0.00, 0.00, 0
179599, -36949.98, -53769.06, 0.00, 0.00, 0.00, 0.00, 0.00, 0.00, 0
179600, -36937.42, -53744.48, 0.00, 0.00, 0.00, 0.00, 0.00, 0.00, 0
179601, -36959.84, -53861.76, 0.00, 0.00, 0.00, 0.00, 0.00, 0.00, 0
179602, -36983.29, -53897.21, 0.00, 0.00, 0.00, 0.00, 0.00, 0.00, 0
179603, -36968.13, -53782.18, 0.00, 0.00, 0.00, 0.00, 0.00, 0.00, 0
179604, -36943.21, -53745.19, 0.00, 0.00, 0.00, 0.00, 0.00, 0.00, 0
179605, -36950.09, -53854.47, 0.00, 0.00, 0.00, 0.00, 0.00, 0.00, 0
179606, -36972.51, -53915.00, 0.00, 0.00, 0.00, 0.00, 0.00, 0.00, 0
179607, -36963.55, -53818.71, 0.00, 0.00, 0.00, 0.00, 0.00, 0.00, 0
179608, -36939.32, -53752.17, 0.00, 0.00, 0.00, 0.00, 0.00, 0.00, 0
179609, -36944.44, -53849.06, 0.00, 0.00, 0.00, 0.00, 0.00, 0.00, 0
179610, -36970.21, -53920.61, 0.00, 0.00, 0.00, 0.00, 0.00, 0.00, 0
179611, -36970.28, -53831.07, 0.00, 0.00, 0.00, 0.00, 0.00, 0.00, 0
179612, -36948.04, -53740.77, 0.00, 0.00, 0.00, 0.00, 0.00, 0.00, 0
179613, -36942.83, -53804.94, 0.00, 0.00, 0.00, 0.00, 0.00, 0.00, 0
179614, -36961.22, -53890.70, 0.00, 0.00, 0.00, 0.00, 0.00, 0.00, 0
179615, -36969.89, -53841.66, 0.00, 0.00, 0.00, 0.00, 0.00, 0.00, 0
179616, -36954.36, -53746.33, 0.00, 0.00, 0.00, 0.00, 0.00, 0.00, 0
179617, -36945.64, -53792.46, 0.00, 0.00, 0.00, 0.00, 0.00, 0.00, 0
179618, -36965.85, -53893.36, 0.00, 0.00, 0.00, 0.00, 0.00, 0.00, 0
179619, -36977.59, -53864.08, 0.00, 0.00, 0.00, 0.00, 0.00, 0.00, 0
179620, -36955.95, -53743.54, 0.00, 0.00, 0.00, 0.00, 0.00, 0.00, 0
179621, -36942.25, -53756.21, 0.00, 0.00, 0.00, 0.00, 0.00, 0.00, 0
179622, -36962.68, -53887.19, 0.00, 0.00, 0.00, 0.00, 0.00, 0.00, 0
179623, -36982.64, -53884.78, 0.00, 0.00, 0.00, 0.00, 0.00, 0.00, 0
179624, -36967.37, -53755.30, 0.00, 0.00, 0.00, 0.00, 0.00, 0.00, 0
179625, -36944.46, -53746.94, 0.00, 0.00, 0.00, 0.00, 0.00, 0.00, 0
179626, -36954.83, -53874.77, 0.00, 0.00, 0.00, 0.00, 0.00, 0.00, 0
179627, -36978.81, -53890.03, 0.00, 0.00, 0.00, 0.00, 0.00, 0.00, 0
179628, -36970.30, -53776.33, 0.00, 0.00, 0.00, 0.00, 0.00, 0.00, 0
179629, -36946.18, -53742.84, 0.00, 0.00, 0.00, 0.00, 0.00, 0.00, 0
179630, -36948.01, -53851.86, 0.00, 0.00, 0.00, 0.00, 0.00, 0.00, 0
179631, -36970.54, -53906.53, 0.00, 0.00, 0.00, 0.00, 0.00, 0.00, 0
179632, -36964.53, -53800.02, 0.00, 0.00, 0.00, 0.00, 0.00, 0.00, 0
179633, -36938.16, -53733.14, 0.00, 0.00, 0.00, 0.00, 0.00, 0.00, 0
179634, -36939.36, -53834.27, 0.00, 0.00, 0.00, 0.00, 0.00, 0.00, 0
179635, -36965.71, -53903.20, 0.00, 0.00, 0.00, 0.00, 0.00, 0.00, 0
179636, -36969.94, -53826.38, 0.00, 0.00, 0.00, 0.00, 0.00, 0.00, 0
179637, -36946.16, -53747.38, 0.00, 0.00, 0.00, 0.00, 0.00, 0.00, 0
179638, -36943.03, -53810.08, 0.00, 0.00, 0.00, 0.00, 0.00, 0.00, 0
179639, -36962.99, -53887.39, 0.00, 0.00, 0.00, 0.00, 0.00, 0.00, 0
179640, -36966.83, -53827.67, 0.00, 0.00, 0.00, 0.00, 0.00, 0.00, 0
179641, -36952.51, -53734.46, 0.00, 0.00, 0.00, 0.00, 0.00, 0.00, 0
179642, -36946.11, -53765.24, 0.00, 0.00, 0.00, 0.00, 0.00, 0.00, 0
179643, -36964.46, -53866.45, 0.00, 0.00, 0.00, 0.00, 0.00, 0.00, 0
179644, -36979.08, -53860.08, 0.00, 0.00, 0.00, 0.00, 0.00, 0.00, 0
179645, -36960.42, -53755.81, 0.00, 0.00, 0.00, 0.00, 0.00, 0.00, 0
179646, -36943.01, -53762.31, 0.00, 0.00, 0.00, 0.00, 0.00, 0.00, 0
179647, -36960.55, -53867.08, 0.00, 0.00, 0.00, 0.00, 0.00, 0.00, 0
179648, -36976.49, -53869.76, 0.00, 0.00, 0.00, 0.00, 0.00, 0.00, 0
179649, -36962.30, -53771.19, 0.00, 0.00, 0.00, 0.00, 0.00, 0.00, 0
179650, -36941.40, -53747.29, 0.00, 0.00, 0.00, 0.00, 0.00, 0.00, 0
179651, -36949.80, -53836.23, 0.00, 0.00, 0.00, 0.00, 0.00, 0.00, 0
179652, -36968.38, -53877.63, 0.00, 0.00, 0.00, 0.00, 0.00, 0.00, 0
179653, -36962.59, -53797.68, 0.00, 0.00, 0.00, 0.00, 0.00, 0.00, 0
179654, -36943.03, -53752.61, 0.00, 0.00, 0.00, 0.00, 0.00, 0.00, 0
179655, -36949.42, -53848.05, 0.00, 0.00, 0.00, 0.00, 0.00, 0.00, 0
179656, -36971.93, -53898.70, 0.00, 0.00, 0.00, 0.00, 0.00, 0.00, 0
179657, -36966.36, -53787.28, 0.00, 0.00, 0.00, 0.00, 0.00, 0.00, 0
179658, -36943.88, -53701.88, 0.00, 0.00, 0.00, 0.00, 0.00, 0.00, 0
179659, -36946.88, -53801.00, 0.00, 0.00, 0.00, 0.00, 0.00, 0.00, 0
179660, -36972.42, -53901.14, 0.00, 0.00, 0.00, 0.00, 0.00, 0.00, 0
179661, -36975.39, -53829.77, 0.00, 0.00, 0.00, 0.00, 0.00, 0.00, 0
179662, -36948.62, -53734.35, 0.00, 0.00, 0.00, 0.00, 0.00, 0.00, 0
179663, -36944.19, -53802.70, 0.00, 0.00, 0.00, 0.00, 0.00, 0.00, 0
179664, -36964.62, -53906.71, 0.00, 0.00, 0.00, 0.00, 0.00, 0.00, 0
179665, -36973.16, -53851.96, 0.00, 0.00, 0.00, 0.00, 0.00, 0.00, 0
179666, -36955.46, -53744.45, 0.00, 0.00, 0.00, 0.00, 0.00, 0.00, 0
179667, -36942.43, -53774.43, 0.00, 0.00, 0.00, 0.00, 0.00, 0.00, 0
179668, -36961.13, -53869.76, 0.00, 0.00, 0.00, 0.00, 0.00, 0.00, 0
179669, -36975.64, -53845.17, 0.00, 0.00, 0.00, 0.00, 0.00, 0.00, 0
179670, -36957.54, -53746.91, 0.00, 0.00, 0.00, 0.00, 0.00, 0.00, 0
179671, -36935.63, -53760.21, 0.00, 0.00, 0.00, 0.00, 0.00, 0.00, 0
179672, -36950.25, -53866.11, 0.00, 0.00, 0.00, 0.00, 0.00, 0.00, 0
179673, -36969.76, -53863.16, 0.00, 0.00, 0.00, 0.00, 0.00, 0.00, 0
179674, -36959.08, -53748.52, 0.00, 0.00, 0.00, 0.00, 0.00, 0.00, 0
179675, -36941.93, -53737.55, 0.00, 0.00, 0.00, 0.00, 0.00, 0.00, 0
179676, -36953.69, -53848.14, 0.00, 0.00, 0.00, 0.00, 0.00, 0.00, 0
179677, -36974.28, -53880.22, 0.00, 0.00, 0.00, 0.00, 0.00, 0.00, 0
179678, -36964.29, -53780.02, 0.00, 0.00, 0.00, 0.00, 0.00, 0.00, 0
179679, -36944.88, -53738.18, 0.00, 0.00, 0.00, 0.00, 0.00, 0.00, 0
179680, -36944.32, -53842.96, 0.00, 0.00, 0.00, 0.00, 0.00, 0.00, 0
179681, -36963.97, -53894.43, 0.00, 0.00, 0.00, 0.00, 0.00, 0.00, 0
179682, -36963.66, -53801.47, 0.00, 0.00, 0.00, 0.00, 0.00, 0.00, 0
179683, -36940.95, -53731.91, 0.00, 0.00, 0.00, 0.00, 0.00, 0.00, 0
179684, -36938.04, -53807.04, 0.00, 0.00, 0.00, 0.00, 0.00, 0.00, 0
179685, -36962.30, -53879.37, 0.00, 0.00, 0.00, 0.00, 0.00, 0.00, 0
179686, -36970.77, -53822.08, 0.00, 0.00, 0.00, 0.00, 0.00, 0.00, 0
179687, -36951.63, -53734.26, 0.00, 0.00, 0.00, 0.00, 0.00, 0.00, 0
179688, -36941.24, -53797.23, 0.00, 0.00, 0.00, 0.00, 0.00, 0.00, 0
179689, -36962.30, -53885.72, 0.00, 0.00, 0.00, 0.00, 0.00, 0.00, 0
179690, -36970.41, -53834.11, 0.00, 0.00, 0.00, 0.00, 0.00, 0.00, 0
179691, -36950.45, -53731.91, 0.00, 0.00, 0.00, 0.00, 0.00, 0.00, 0
179692, -36936.73, -53764.08, 0.00, 0.00, 0.00, 0.00, 0.00, 0.00, 0
179693, -36954.72, -53878.12, 0.00, 0.00, 0.00, 0.00, 0.00, 0.00, 0
179694, -36971.28, -53860.71, 0.00, 0.00, 0.00, 0.00, 0.00, 0.00, 0
179695, -36957.20, -53737.05, 0.00, 0.00, 0.00, 0.00, 0.00, 0.00, 0
179696, -36937.53, -53736.27, 0.00, 0.00, 0.00, 0.00, 0.00, 0.00, 0
179697, -36950.70, -53865.15, 0.00, 0.00, 0.00, 0.00, 0.00, 0.00, 0
179698, -36971.97, -53880.24, 0.00, 0.00, 0.00, 0.00, 0.00, 0.00, 0
179699, -36961.87, -53767.21, 0.00, 0.00, 0.00, 0.00, 0.00, 0.00, 0
179700, -36937.87, -53721.81, 0.00, 0.00, 0.00, 0.00, 0.00, 0.00, 0
179701, -36947.14, -53817.12, 0.00, 0.00, 0.00, 0.00, 0.00, 0.00, 0
179702, -36970.99, -53868.30, 0.00, 0.00, 0.00, 0.00, 0.00, 0.00, 0
179703, -36967.01, -53779.88, 0.00, 0.00, 0.00, 0.00, 0.00, 0.00, 0
179704, -36949.64, -53744.72, 0.00, 0.00, 0.00, 0.00, 0.00, 0.00, 0
179705, -36951.41, -53836.99, 0.00, 0.00, 0.00, 0.00, 0.00, 0.00, 0
179706, -36972.22, -53886.46, 0.00, 0.00, 0.00, 0.00, 0.00, 0.00, 0
179707, -36969.61, -53800.38, 0.00, 0.00, 0.00, 0.00, 0.00, 0.00, 0
179708, -36946.89, -53726.44, 0.00, 0.00, 0.00, 0.00, 0.00, 0.00, 0
179709, -36940.01, -53793.92, 0.00, 0.00, 0.00, 0.00, 0.00, 0.00, 0
179710, -36964.13, -53881.25, 0.00, 0.00, 0.00, 0.00, 0.00, 0.00, 0
179711, -36971.04, -53826.95, 0.00, 0.00, 0.00, 0.00, 0.00, 0.00, 0
179712, -36947.45, -53723.85, 0.00, 0.00, 0.00, 0.00, 0.00, 0.00, 0
179713, -36939.86, -53780.98, 0.00, 0.00, 0.00, 0.00, 0.00, 0.00, 0
179714, -36960.71, -53896.45, 0.00, 0.00, 0.00, 0.00, 0.00, 0.00, 0
179715, -36973.63, -53860.26, 0.00, 0.00, 0.00, 0.00, 0.00, 0.00, 0
179716, -36955.55, -53742.80, 0.00, 0.00, 0.00, 0.00, 0.00, 0.00, 0
179717, -36944.04, -53759.99, 0.00, 0.00, 0.00, 0.00, 0.00, 0.00, 0
179718, -36963.32, -53873.67, 0.00, 0.00, 0.00, 0.00, 0.00, 0.00, 0
179719, -36976.36, -53857.46, 0.00, 0.00, 0.00, 0.00, 0.00, 0.00, 0
179720, -36957.71, -53738.69, 0.00, 0.00, 0.00, 0.00, 0.00, 0.00, 0
179721, -36940.88, -53741.57, 0.00, 0.00, 0.00, 0.00, 0.00, 0.00, 0
179722, -36959.10, -53859.68, 0.00, 0.00, 0.00, 0.00, 0.00, 0.00, 0
179723, -36977.76, -53871.55, 0.00, 0.00, 0.00, 0.00, 0.00, 0.00, 0
179724, -36948.95, -53755.74, 0.00, 0.00, 0.00, 0.00, 0.00, 0.00, 0
179725, -36926.73, -53728.47, 0.00, 0.00, 0.00, 0.00, 0.00, 0.00, 0
179726, -36936.41, -53822.26, 0.00, 0.00, 0.00, 0.00, 0.00, 0.00, 0
179727, -36959.55, -53856.46, 0.00, 0.00, 0.00, 0.00, 0.00, 0.00, 0
179728, -36952.66, -53775.77, 0.00, 0.00, 0.00, 0.00, 0.00, 0.00, 0
179729, -36927.63, -53728.05, 0.00, 0.00, 0.00, 0.00, 0.00, 0.00, 0
179730, -36924.88, -53813.54, 0.00, 0.00, 0.00, 0.00, 0.00, 0.00, 0
179731, -36948.46, -53885.41, 0.00, 0.00, 0.00, 0.00, 0.00, 0.00, 0
179732, -36955.84, -53811.91, 0.00, 0.00, 0.00, 0.00, 0.00, 0.00, 0
179733, -36936.23, -53728.47, 0.00, 0.00, 0.00, 0.00, 0.00, 0.00, 0
179734, -36930.42, -53794.90, 0.00, 0.00, 0.00, 0.00, 0.00, 0.00, 0
179735, -36952.06, -53863.86, 0.00, 0.00, 0.00, 0.00, 0.00, 0.00, 0
179736, -36957.02, -53791.86, 0.00, 0.00, 0.00, 0.00, 0.00, 0.00, 0
179737, -36938.83, -53708.71, 0.00, 0.00, 0.00, 0.00, 0.00, 0.00, 0
179738, -36933.29, -53764.57, 0.00, 0.00, 0.00, 0.00, 0.00, 0.00, 0
179739, -36952.62, -53855.83, 0.00, 0.00, 0.00, 0.00, 0.00, 0.00, 0
179740, -36966.92, -53824.14, 0.00, 0.00, 0.00, 0.00, 0.00, 0.00, 0
179741, -36951.79, -53716.20, 0.00, 0.00, 0.00, 0.00, 0.00, 0.00, 0
179742, -36938.00, -53718.64, 0.00, 0.00, 0.00, 0.00, 0.00, 0.00, 0
179743, -36953.71, -53822.82, 0.00, 0.00, 0.00, 0.00, 0.00, 0.00, 0
179744, -36966.41, -53829.26, 0.00, 0.00, 0.00, 0.00, 0.00, 0.00, 0
179745, -36948.01, -53730.53, 0.00, 0.00, 0.00, 0.00, 0.00, 0.00, 0
179746, -36929.15, -53725.75, 0.00, 0.00, 0.00, 0.00, 0.00, 0.00, 0
179747, -36934.58, -53834.22, 0.00, 0.00, 0.00, 0.00, 0.00, 0.00, 0
179748, -36952.57, -53869.00, 0.00, 0.00, 0.00, 0.00, 0.00, 0.00, 0
179749, -36946.40, -53759.57, 0.00, 0.00, 0.00, 0.00, 0.00, 0.00, 0
179750, -36931.32, -53724.45, 0.00, 0.00, 0.00, 0.00, 0.00, 0.00, 0
179751, -36937.64, -53836.34, 0.00, 0.00, 0.00, 0.00, 0.00, 0.00, 0
179752, -36965.09, -53883.91, 0.00, 0.00, 0.00, 0.00, 0.00, 0.00, 0
179753, -36964.04, -53779.32, 0.00, 0.00, 0.00, 0.00, 0.00, 0.00, 0
179754, -36941.35, -53707.86, 0.00, 0.00, 0.00, 0.00, 0.00, 0.00, 0
179755, -36941.06, -53800.40, 0.00, 0.00, 0.00, 0.00, 0.00, 0.00, 0
179756, -36961.22, -53870.96, 0.00, 0.00, 0.00, 0.00, 0.00, 0.00, 0
179757, -36958.99, -53781.56, 0.00, 0.00, 0.00, 0.00, 0.00, 0.00, 0
179758, -36936.57, -53692.55, 0.00, 0.00, 0.00, 0.00, 0.00, 0.00, 0
179759, -36930.16, -53761.40, 0.00, 0.00, 0.00, 0.00, 0.00, 0.00, 0
179760, -36950.47, -53851.90, 0.00, 0.00, 0.00, 0.00, 0.00, 0.00, 0
179761, -36958.65, -53797.32, 0.00, 0.00, 0.00, 0.00, 0.00, 0.00, 0
179762, -36940.86, -53698.54, 0.00, 0.00, 0.00, 0.00, 0.00, 0.00, 0
179763, -36931.23, -53740.18, 0.00, 0.00, 0.00, 0.00, 0.00, 0.00, 0
179764, -36952.98, -53858.61, 0.00, 0.00, 0.00, 0.00, 0.00, 0.00, 0
179765, -36967.30, -53833.53, 0.00, 0.00, 0.00, 0.00, 0.00, 0.00, 0
179766, -36947.12, -53703.98, 0.00, 0.00, 0.00, 0.00, 0.00, 0.00, 0
179767, -36928.86, -53713.16, 0.00, 0.00, 0.00, 0.00, 0.00, 0.00, 0
179768, -36946.49, -53852.12, 0.00, 0.00, 0.00, 0.00, 0.00, 0.00, 0
179769, -36966.70, -53863.77, 0.00, 0.00, 0.00, 0.00, 0.00, 0.00, 0
179770, -36953.73, -53748.30, 0.00, 0.00, 0.00, 0.00, 0.00, 0.00, 0
179771, -36932.84, -53726.80, 0.00, 0.00, 0.00, 0.00, 0.00, 0.00, 0
179772, -36941.60, -53830.42, 0.00, 0.00, 0.00, 0.00, 0.00, 0.00, 0
179773, -36961.04, -53848.97, 0.00, 0.00, 0.00, 0.00, 0.00, 0.00, 0
179774, -36951.23, -53731.34, 0.00, 0.00, 0.00, 0.00, 0.00, 0.00, 0
179775, -36927.74, -53687.59, 0.00, 0.00, 0.00, 0.00, 0.00, 0.00, 0
179776, -36932.23, -53800.78, 0.00, 0.00, 0.00, 0.00, 0.00, 0.00, 0
179777, -36960.38, -53864.66, 0.00, 0.00, 0.00, 0.00, 0.00, 0.00, 0
179778, -36960.22, -53782.59, 0.00, 0.00, 0.00, 0.00, 0.00, 0.00, 0
179779, -36939.34, -53713.57, 0.00, 0.00, 0.00, 0.00, 0.00, 0.00, 0
179780, -36943.25, -53795.89, 0.00, 0.00, 0.00, 0.00, 0.00, 0.00, 0
179781, -36965.87, -53861.60, 0.00, 0.00, 0.00, 0.00, 0.00, 0.00, 0
179782, -36969.40, -53780.08, 0.00, 0.00, 0.00, 0.00, 0.00, 0.00, 0
179783, -36949.38, -53694.86, 0.00, 0.00, 0.00, 0.00, 0.00, 0.00, 0
179784, -36943.68, -53769.36, 0.00, 0.00, 0.00, 0.00, 0.00, 0.00, 0
179785, -36969.79, -53880.02, 0.00, 0.00, 0.00, 0.00, 0.00, 0.00, 0
179786, -36978.59, -53823.20, 0.00, 0.00, 0.00, 0.00, 0.00, 0.00, 0
179787, -36954.29, -53702.46, 0.00, 0.00, 0.00, 0.00, 0.00, 0.00, 0
179788, -36938.52, -53739.38, 0.00, 0.00, 0.00, 0.00, 0.00, 0.00, 0
179789, -36956.13, -53857.89, 0.00, 0.00, 0.00, 0.00, 0.00, 0.00, 0
179790, -36972.33, -53824.74, 0.00, 0.00, 0.00, 0.00, 0.00, 0.00, 0
179791, -36957.67, -53704.38, 0.00, 0.00, 0.00, 0.00, 0.00, 0.00, 0
179792, -36943.39, -53720.70, 0.00, 0.00, 0.00, 0.00, 0.00, 0.00, 0
179793, -36957.16, -53837.33, 0.00, 0.00, 0.00, 0.00, 0.00, 0.00, 0
179794, -36973.45, -53843.43, 0.00, 0.00, 0.00, 0.00, 0.00, 0.00, 0
179795, -36958.14, -53737.75, 0.00, 0.00, 0.00, 0.00, 0.00, 0.00, 0
179796, -36938.83, -53722.73, 0.00, 0.00, 0.00, 0.00, 0.00, 0.00, 0
179797, -36951.01, -53822.75, 0.00, 0.00, 0.00, 0.00, 0.00, 0.00, 0
179798, -36971.15, -53853.73, 0.00, 0.00, 0.00, 0.00, 0.00, 0.00, 0
179799, -36965.14, -53752.46, 0.00, 0.00, 0.00, 0.00, 0.00, 0.00, 0
179800, -36939.79, -53695.28, 0.00, 0.00, 0.00, 0.00, 0.00, 0.00, 0
179801, -36939.83, -53789.34, 0.00, 0.00, 0.00, 0.00, 0.00, 0.00, 0
179802, -36964.64, -53848.41, 0.00, 0.00, 0.00, 0.00, 0.00, 0.00, 0
179803, -36964.15, -53772.57, 0.00, 0.00, 0.00, 0.00, 0.00, 0.00, 0
179804, -36936.14, -53704.98, 0.00, 0.00, 0.00, 0.00, 0.00, 0.00, 0
179805, -36931.61, -53791.41, 0.00, 0.00, 0.00, 0.00, 0.00, 0.00, 0
179806, -36951.88, -53860.04, 0.00, 0.00, 0.00, 0.00, 0.00, 0.00, 0
179807, -36958.63, -53781.36, 0.00, 0.00, 0.00, 0.00, 0.00, 0.00, 0
179808, -36936.28, -53689.69, 0.00, 0.00, 0.00, 0.00, 0.00, 0.00, 0
179809, -36926.94, -53748.14, 0.00, 0.00, 0.00, 0.00, 0.00, 0.00, 0
179810, -36952.15, -53849.51, 0.00, 0.00, 0.00, 0.00, 0.00, 0.00, 0
179811, -36964.82, -53824.43, 0.00, 0.00, 0.00, 0.00, 0.00, 0.00, 0
179812, -36943.83, -53716.96, 0.00, 0.00, 0.00, 0.00, 0.00, 0.00, 0
179813, -36930.76, -53738.62, 0.00, 0.00, 0.00, 0.00, 0.00, 0.00, 0
179814, -36950.72, -53836.99, 0.00, 0.00, 0.00, 0.00, 0.00, 0.00, 0
179815, -36970.66, -53818.68, 0.00, 0.00, 0.00, 0.00, 0.00, 0.00, 0
179816, -36956.69, -53722.50, 0.00, 0.00, 0.00, 0.00, 0.00, 0.00, 0
179817, -36936.43, -53728.56, 0.00, 0.00, 0.00, 0.00, 0.00, 0.00, 0
179818, -36948.44, -53831.36, 0.00, 0.00, 0.00, 0.00, 0.00, 0.00, 0
179819, -36967.95, -53835.45, 0.00, 0.00, 0.00, 0.00, 0.00, 0.00, 0
179820, -36956.06, -53739.65, 0.00, 0.00, 0.00, 0.00, 0.00, 0.00, 0
179821, -36938.09, -53729.48, 0.00, 0.00, 0.00, 0.00, 0.00, 0.00, 0
179822, -36946.61, -53829.28, 0.00, 0.00, 0.00, 0.00, 0.00, 0.00, 0
179823, -36967.68, -53859.81, 0.00, 0.00, 0.00, 0.00, 0.00, 0.00, 0
179824, -36961.00, -53759.65, 0.00, 0.00, 0.00, 0.00, 0.00, 0.00, 0
179825, -36938.52, -53707.20, 0.00, 0.00, 0.00, 0.00, 0.00, 0.00, 0
179826, -36941.80, -53799.13, 0.00, 0.00, 0.00, 0.00, 0.00, 0.00, 0
179827, -36963.86, -53848.61, 0.00, 0.00, 0.00, 0.00, 0.00, 0.00, 0
179828, -36965.18, -53766.70, 0.00, 0.00, 0.00, 0.00, 0.00, 0.00, 0
179829, -36945.36, -53698.66, 0.00, 0.00, 0.00, 0.00, 0.00, 0.00, 0
179830, -36939.63, -53777.16, 0.00, 0.00, 0.00, 0.00, 0.00, 0.00, 0
179831, -36955.23, -53859.75, 0.00, 0.00, 0.00, 0.00, 0.00, 0.00, 0
179832, -36961.96, -53800.09, 0.00, 0.00, 0.00, 0.00, 0.00, 0.00, 0
179833, -36943.70, -53711.66, 0.00, 0.00, 0.00, 0.00, 0.00, 0.00, 0
179834, -36931.68, -53760.01, 0.00, 0.00, 0.00, 0.00, 0.00, 0.00, 0
179835, -36952.26, -53848.41, 0.00, 0.00, 0.00, 0.00, 0.00, 0.00, 0
179836, -36965.58, -53805.65, 0.00, 0.00, 0.00, 0.00, 0.00, 0.00, 0
179837, -36950.83, -53698.25, 0.00, 0.00, 0.00, 0.00, 0.00, 0.00, 0
179838, -36942.56, -53720.96, 0.00, 0.00, 0.00, 0.00, 0.00, 0.00, 0
179839, -36956.44, -53844.93, 0.00, 0.00, 0.00, 0.00, 0.00, 0.00, 0
179840, -36967.75, -53841.53, 0.00, 0.00, 0.00, 0.00, 0.00, 0.00, 0
179841, -36954.79, -53718.32, 0.00, 0.00, 0.00, 0.00, 0.00, 0.00, 0
179842, -36937.87, -53700.94, 0.00, 0.00, 0.00, 0.00, 0.00, 0.00, 0
179843, -36954.50, -53813.93, 0.00, 0.00, 0.00, 0.00, 0.00, 0.00, 0
179844, -36974.05, -53841.98, 0.00, 0.00, 0.00, 0.00, 0.00, 0.00, 0
179845, -36957.74, -53738.55, 0.00, 0.00, 0.00, 0.00, 0.00, 0.00, 0
179846, -36935.03, -53713.36, 0.00, 0.00, 0.00, 0.00, 0.00, 0.00, 0
179847, -36949.24, -53827.40, 0.00, 0.00, 0.00, 0.00, 0.00, 0.00, 0
179848, -36973.70, -53858.47, 0.00, 0.00, 0.00, 0.00, 0.00, 0.00, 0
179849, -36967.04, -53757.82, 0.00, 0.00, 0.00, 0.00, 0.00, 0.00, 0
179850, -36946.00, -53703.80, 0.00, 0.00, 0.00, 0.00, 0.00, 0.00, 0
179851, -36950.94, -53799.86, 0.00, 0.00, 0.00, 0.00, 0.00, 0.00, 0
179852, -36973.27, -53858.25, 0.00, 0.00, 0.00, 0.00, 0.00, 0.00, 0
179853, -36970.48, -53767.57, 0.00, 0.00, 0.00, 0.00, 0.00, 0.00, 0
179854, -36946.40, -53690.65, 0.00, 0.00, 0.00, 0.00, 0.00, 0.00, 0
179855, -36945.58, -53778.12, 0.00, 0.00, 0.00, 0.00, 0.00, 0.00, 0
179856, -36967.32, -53857.29, 0.00, 0.00, 0.00, 0.00, 0.00, 0.00, 0
179857, -36972.85, -53782.56, 0.00, 0.00, 0.00, 0.00, 0.00, 0.00, 0
179858, -36955.01, -53685.82, 0.00, 0.00, 0.00, 0.00, 0.00, 0.00, 0
179859, -36947.52, -53743.00, 0.00, 0.00, 0.00, 0.00, 0.00, 0.00, 0
179860, -36966.25, -53843.76, 0.00, 0.00, 0.00, 0.00, 0.00, 0.00, 0
179861, -36985.61, -53815.60, 0.00, 0.00, 0.00, 0.00, 0.00, 0.00, 0
179862, -36970.32, -53713.92, 0.00, 0.00, 0.00, 0.00, 0.00, 0.00, 0
179863, -36952.93, -53735.85, 0.00, 0.00, 0.00, 0.00, 0.00, 0.00, 0
179864, -36967.59, -53828.12, 0.00, 0.00, 0.00, 0.00, 0.00, 0.00, 0
179865, -36982.23, -53811.53, 0.00, 0.00, 0.00, 0.00, 0.00, 0.00, 0
179866, -36968.38, -53705.83, 0.00, 0.00, 0.00, 0.00, 0.00, 0.00, 0
179867, -36953.96, -53711.22, 0.00, 0.00, 0.00, 0.00, 0.00, 0.00, 0
179868, -36967.79, -53825.77, 0.00, 0.00, 0.00, 0.00, 0.00, 0.00, 0
179869, -36984.63, -53841.17, 0.00, 0.00, 0.00, 0.00, 0.00, 0.00, 0
179870, -36976.36, -53729.10, 0.00, 0.00, 0.00, 0.00, 0.00, 0.00, 0
179871, -36957.96, -53691.88, 0.00, 0.00, 0.00, 0.00, 0.00, 0.00, 0
179872, -36963.68, -53793.43, 0.00, 0.00, 0.00, 0.00, 0.00, 0.00, 0
179873, -36980.34, -53833.86, 0.00, 0.00, 0.00, 0.00, 0.00, 0.00, 0
179874, -36975.57, -53730.15, 0.00, 0.00, 0.00, 0.00, 0.00, 0.00, 0
179875, -36955.41, -53671.43, 0.00, 0.00, 0.00, 0.00, 0.00, 0.00, 0
179876, -36956.91, -53774.70, 0.00, 0.00, 0.00, 0.00, 0.00, 0.00, 0
179877, -36978.52, -53847.74, 0.00, 0.00, 0.00, 0.00, 0.00, 0.00, 0
179878, -36979.86, -53775.37, 0.00, 0.00, 0.00, 0.00, 0.00, 0.00, 0
179879, -36960.02, -53691.61, 0.00, 0.00, 0.00, 0.00, 0.00, 0.00, 0
179880, -36952.17, -53752.95, 0.00, 0.00, 0.00, 0.00, 0.00, 0.00, 0
179881, -36974.57, -53842.20, 0.00, 0.00, 0.00, 0.00, 0.00, 0.00, 0
179882, -36979.57, -53791.19, 0.00, 0.00, 0.00, 0.00, 0.00, 0.00, 0
179883, -36955.66, -53683.73, 0.00, 0.00, 0.00, 0.00, 0.00, 0.00, 0
179884, -36945.84, -53721.37, 0.00, 0.00, 0.00, 0.00, 0.00, 0.00, 0
179885, -36970.21, -53837.93, 0.00, 0.00, 0.00, 0.00, 0.00, 0.00, 0
179886, -36984.60, -53819.13, 0.00, 0.00, 0.00, 0.00, 0.00, 0.00, 0
179887, -36970.36, -53710.17, 0.00, 0.00, 0.00, 0.00, 0.00, 0.00, 0
179888, -36956.51, -53726.95, 0.00, 0.00, 0.00, 0.00, 0.00, 0.00, 0
179889, -36967.30, -53830.02, 0.00, 0.00, 0.00, 0.00, 0.00, 0.00, 0
179890, -36982.99, -53813.34, 0.00, 0.00, 0.00, 0.00, 0.00, 0.00, 0
179891, -36967.19, -53688.42, 0.00, 0.00, 0.00, 0.00, 0.00, 0.00, 0
179892, -36948.59, -53678.09, 0.00, 0.00, 0.00, 0.00, 0.00, 0.00, 0
179893, -36963.13, -53808.49, 0.00, 0.00, 0.00, 0.00, 0.00, 0.00, 0
179894, -36984.71, -53846.45, 0.00, 0.00, 0.00, 0.00, 0.00, 0.00, 0
179895, -36973.90, -53742.22, 0.00, 0.00, 0.00, 0.00, 0.00, 0.00, 0
179896, -36953.55, -53698.63, 0.00, 0.00, 0.00, 0.00, 0.00, 0.00, 0
179897, -36960.22, -53802.01, 0.00, 0.00, 0.00, 0.00, 0.00, 0.00, 0
179898, -36978.68, -53836.84, 0.00, 0.00, 0.00, 0.00, 0.00, 0.00, 0
179899, -36973.41, -53714.97, 0.00, 0.00, 0.00, 0.00, 0.00, 0.00, 0
179900, -36953.51, -53663.99, 0.00, 0.00, 0.00, 0.00, 0.00, 0.00, 0
179901, -36952.17, -53783.05, 0.00, 0.00, 0.00, 0.00, 0.00, 0.00, 0
179902, -36972.45, -53854.87, 0.00, 0.00, 0.00, 0.00, 0.00, 0.00, 0
179903, -36979.21, -53774.34, 0.00, 0.00, 0.00, 0.00, 0.00, 0.00, 0
179904, -36959.82, -53676.84, 0.00, 0.00, 0.00, 0.00, 0.00, 0.00, 0
179905, -36948.91, -53746.00, 0.00, 0.00, 0.00, 0.00, 0.00, 0.00, 0
179906, -36974.88, -53850.18, 0.00, 0.00, 0.00, 0.00, 0.00, 0.00, 0
179907, -36985.07, -53787.41, 0.00, 0.00, 0.00, 0.00, 0.00, 0.00, 0
179908, -36965.02, -53673.60, 0.00, 0.00, 0.00, 0.00, 0.00, 0.00, 0
179909, -36955.32, -53720.98, 0.00, 0.00, 0.00, 0.00, 0.00, 0.00, 0
179910, -36973.29, -53829.04, 0.00, 0.00, 0.00, 0.00, 0.00, 0.00, 0
179911, -36983.15, -53797.47, 0.00, 0.00, 0.00, 0.00, 0.00, 0.00, 0
179912, -36967.01, -53687.01, 0.00, 0.00, 0.00, 0.00, 0.00, 0.00, 0
179913, -36950.02, -53709.96, 0.00, 0.00, 0.00, 0.00, 0.00, 0.00, 0
179914, -36962.16, -53827.94, 0.00, 0.00, 0.00, 0.00, 0.00, 0.00, 0
179915, -36979.80, -53826.08, 0.00, 0.00, 0.00, 0.00, 0.00, 0.00, 0
179916, -36967.57, -53699.44, 0.00, 0.00, 0.00, 0.00, 0.00, 0.00, 0
179917, -36944.66, -53672.62, 0.00, 0.00, 0.00, 0.00, 0.00, 0.00, 0
179918, -36954.63, -53773.07, 0.00, 0.00, 0.00, 0.00, 0.00, 0.00, 0
179919, -36976.76, -53801.36, 0.00, 0.00, 0.00, 0.00, 0.00, 0.00, 0
179920, -36978.32, -53734.46, 0.00, 0.00, 0.00, 0.00, 0.00, 0.00, 0
179921, -36963.10, -53701.20, 0.00, 0.00, 0.00, 0.00, 0.00, 0.00, 0
179922, -36964.96, -53792.20, 0.00, 0.00, 0.00, 0.00, 0.00, 0.00, 0
179923, -36988.20, -53853.64, 0.00, 0.00, 0.00, 0.00, 0.00, 0.00, 0
179924, -36983.84, -53773.09, 0.00, 0.00, 0.00, 0.00, 0.00, 0.00, 0
179925, -36961.76, -53700.82, 0.00, 0.00, 0.00, 0.00, 0.00, 0.00, 0
179926, -36957.98, -53771.19, 0.00, 0.00, 0.00, 0.00, 0.00, 0.00, 0
179927, -36975.42, -53824.77, 0.00, 0.00, 0.00, 0.00, 0.00, 0.00, 0
179928, -36978.21, -53740.92, 0.00, 0.00, 0.00, 0.00, 0.00, 0.00, 0
179929, -36960.26, -53672.32, 0.00, 0.00, 0.00, 0.00, 0.00, 0.00, 0
179930, -36952.42, -53755.99, 0.00, 0.00, 0.00, 0.00, 0.00, 0.00, 0
179931, -36972.09, -53852.64, 0.00, 0.00, 0.00, 0.00, 0.00, 0.00, 0
179932, -36978.59, -53800.13, 0.00, 0.00, 0.00, 0.00, 0.00, 0.00, 0
179933, -36961.76, -53692.06, 0.00, 0.00, 0.00, 0.00, 0.00, 0.00, 0
179934, -36949.46, -53721.43, 0.00, 0.00, 0.00, 0.00, 0.00, 0.00, 0
179935, -36964.73, -53818.13, 0.00, 0.00, 0.00, 0.00, 0.00, 0.00, 0
179936, -36973.90, -53793.32, 0.00, 0.00, 0.00, 0.00, 0.00, 0.00, 0
179937, -36956.75, -53692.15, 0.00, 0.00, 0.00, 0.00, 0.00, 0.00, 0
179938, -36944.01, -53712.27, 0.00, 0.00, 0.00, 0.00, 0.00, 0.00, 0
179939, -36960.29, -53813.95, 0.00, 0.00, 0.00, 0.00, 0.00, 0.00, 0
179940, -36974.37, -53821.48, 0.00, 0.00, 0.00, 0.00, 0.00, 0.00, 0
179941, -36959.57, -53717.10, 0.00, 0.00, 0.00, 0.00, 0.00, 0.00, 0
179942, -36939.36, -53674.56, 0.00, 0.00, 0.00, 0.00, 0.00, 0.00, 0
179943, -36950.29, -53781.63, 0.00, 0.00, 0.00, 0.00, 0.00, 0.00, 0
179944, -36971.48, -53840.43, 0.00, 0.00, 0.00, 0.00, 0.00, 0.00, 0
179945, -36965.14, -53746.46, 0.00, 0.00, 0.00, 0.00, 0.00, 0.00, 0
179946, -36943.90, -53690.95, 0.00, 0.00, 0.00, 0.00, 0.00, 0.00, 0
179947, -36951.88, -53802.41, 0.00, 0.00, 0.00, 0.00, 0.00, 0.00, 0
179948, -36976.40, -53856.62, 0.00, 0.00, 0.00, 0.00, 0.00, 0.00, 0
179949, -36975.08, -53758.16, 0.00, 0.00, 0.00, 0.00, 0.00, 0.00, 0
179950, -36957.25, -53684.35, 0.00, 0.00, 0.00, 0.00, 0.00, 0.00, 0
179951, -36956.20, -53765.93, 0.00, 0.00, 0.00, 0.00, 0.00, 0.00, 0
179952, -36976.67, -53846.45, 0.00, 0.00, 0.00, 0.00, 0.00, 0.00, 0
179953, -36979.89, -53775.64, 0.00, 0.00, 0.00, 0.00, 0.00, 0.00, 0
179954, -36957.78, -53673.11, 0.00, 0.00, 0.00, 0.00, 0.00, 0.00, 0
179955, -36949.51, -53730.06, 0.00, 0.00, 0.00, 0.00, 0.00, 0.00, 0
179956, -36971.26, -53839.43, 0.00, 0.00, 0.00, 0.00, 0.00, 0.00, 0
179957, -36979.86, -53802.03, 0.00, 0.00, 0.00, 0.00, 0.00, 0.00, 0
179958, -36959.43, -53695.23, 0.00, 0.00, 0.00, 0.00, 0.00, 0.00, 0
179959, -36944.50, -53710.61, 0.00, 0.00, 0.00, 0.00, 0.00, 0.00, 0
179960, -36961.56, -53794.01, 0.00, 0.00, 0.00, 0.00, 0.00, 0.00, 0
179961, -36975.30, -53784.33, 0.00, 0.00, 0.00, 0.00, 0.00, 0.00, 0
179962, -36959.21, -53700.15, 0.00, 0.00, 0.00, 0.00, 0.00, 0.00, 0
179963, -36941.22, -53698.54, 0.00, 0.00, 0.00, 0.00, 0.00, 0.00, 0
179964, -36959.55, -53800.91, 0.00, 0.00, 0.00, 0.00, 0.00, 0.00, 0
179965, -36979.44, -53815.78, 0.00, 0.00, 0.00, 0.00, 0.00, 0.00, 0
179966, -36965.40, -53709.54, 0.00, 0.00, 0.00, 0.00, 0.00, 0.00, 0
179967, -36948.41, -53684.66, 0.00, 0.00, 0.00, 0.00, 0.00, 0.00, 0
179968, -36958.32, -53802.52, 0.00, 0.00, 0.00, 0.00, 0.00, 0.00, 0
179969, -36977.74, -53834.38, 0.00, 0.00, 0.00, 0.00, 0.00, 0.00, 0
179970, -36969.40, -53733.28, 0.00, 0.00, 0.00, 0.00, 0.00, 0.00, 0
179971, -36951.72, -53699.55, 0.00, 0.00, 0.00, 0.00, 0.00, 0.00, 0
179972, -36954.32, -53797.68, 0.00, 0.00, 0.00, 0.00, 0.00, 0.00, 0
179973, -36971.97, -53853.73, 0.00, 0.00, 0.00, 0.00, 0.00, 0.00, 0
179974, -36966.59, -53765.78, 0.00, 0.00, 0.00, 0.00, 0.00, 0.00, 0
179975, -36942.29, -53684.24, 0.00, 0.00, 0.00, 0.00, 0.00, 0.00, 0
179976, -36938.71, -53753.89, 0.00, 0.00, 0.00, 0.00, 0.00, 0.00, 0
179977, -36962.21, -53828.65, 0.00, 0.00, 0.00, 0.00, 0.00, 0.00, 0
179978, -36968.75, -53763.36, 0.00, 0.00, 0.00, 0.00, 0.00, 0.00, 0
179979, -36949.87, -53671.66, 0.00, 0.00, 0.00, 0.00, 0.00, 0.00, 0
179980, -36938.52, -53723.96, 0.00, 0.00, 0.00, 0.00, 0.00, 0.00, 0
179981, -36957.16, -53818.02, 0.00, 0.00, 0.00, 0.00, 0.00, 0.00, 0
179982, -36971.21, -53791.41, 0.00, 0.00, 0.00, 0.00, 0.00, 0.00, 0
179983, -36958.09, -53684.64, 0.00, 0.00, 0.00, 0.00, 0.00, 0.00, 0
179984, -36949.91, -53700.71, 0.00, 0.00, 0.00, 0.00, 0.00, 0.00, 0
179985, -36964.17, -53799.71, 0.00, 0.00, 0.00, 0.00, 0.00, 0.00, 0
179986, -36975.02, -53793.76, 0.00, 0.00, 0.00, 0.00, 0.00, 0.00, 0
179987, -36960.26, -53705.12, 0.00, 0.00, 0.00, 0.00, 0.00, 0.00, 0
179988, -36939.96, -53706.12, 0.00, 0.00, 0.00, 0.00, 0.00, 0.00, 0
179989, -36950.07, -53805.72, 0.00, 0.00, 0.00, 0.00, 0.00, 0.00, 0
179990, -36966.05, -53817.01, 0.00, 0.00, 0.00, 0.00, 0.00, 0.00, 0
179991, -36957.29, -53712.78, 0.00, 0.00, 0.00, 0.00, 0.00, 0.00, 0
179992, -36943.83, -53680.51, 0.00, 0.00, 0.00, 0.00, 0.00, 0.00, 0
179993, -36959.26, -53782.23, 0.00, 0.00, 0.00, 0.00, 0.00, 0.00, 0
179994, -36982.10, -53818.77, 0.00, 0.00, 0.00, 0.00, 0.00, 0.00, 0
179995, -36973.11, -53726.82, 0.00, 0.00, 0.00, 0.00, 0.00, 0.00, 0
179996, -36948.68, -53675.84, 0.00, 0.00, 0.00, 0.00, 0.00, 0.00, 0
179997, -36950.76, -53770.61, 0.00, 0.00, 0.00, 0.00, 0.00, 0.00, 0
179998, -36967.46, -53827.78, 0.00, 0.00, 0.00, 0.00, 0.00, 0.00, 0
179999, -36961.43, -53744.52, 0.00, 0.00, 0.00, 0.00, 0.00, 0.00, 0
180000, -36937.31, -53662.74, 0.00, 0.00, 0.00, 0.00, 0.00, 0.00, 0
180001, -36932.05, -53735.00, 0.00, 0.00, 0.00, 0.00, 0.00, 0.00, 0
180002, -36951.37, -53813.84, 0.00, 0.00, 0.00, 0.00, 0.00, 0.00, 0
180003, -36958.30, -53756.32, 0.00, 0.00, 0.00, 0.00, 0.00, 0.00, 0
180004, -36940.53, -53671.32, 0.00, 0.00, 0.00, 0.00, 0.00, 0.00, 0
180005, -36935.09, -53731.16, 0.00, 0.00, 0.00, 0.00, 0.00, 0.00, 0
180006, -36961.22, -53845.71, 0.00, 0.00, 0.00, 0.00, 0.00, 0.00, 0
180007, -36969.89, -53793.83, 0.00, 0.00, 0.00, 0.00, 0.00, 0.00, 0
180008, -36947.81, -53680.66, 0.00, 0.00, 0.00, 0.00, 0.00, 0.00, 0
180009, -36934.69, -53707.48, 0.00, 0.00, 0.00, 0.00, 0.00, 0.00, 0
180010, -36951.88, -53801.92, 0.00, 0.00, 0.00, 0.00, 0.00, 0.00, 0
180011, -36967.48, -53790.16, 0.00, 0.00, 0.00, 0.00, 0.00, 0.00, 0
180012, -36955.12, -53688.44, 0.00, 0.00, 0.00, 0.00, 0.00, 0.00, 0
180013, -36936.93, -53681.60, 0.00, 0.00, 0.00, 0.00, 0.00, 0.00, 0
180014, -36947.23, -53784.73, 0.00, 0.00, 0.00, 0.00, 0.00, 0.00, 0
180015, -36964.42, -53802.30, 0.00, 0.00, 0.00, 0.00, 0.00, 0.00, 0
180016, -36953.09, -53692.87, 0.00, 0.00, 0.00, 0.00, 0.00, 0.00, 0
180017, -36934.94, -53667.12, 0.00, 0.00, 0.00, 0.00, 0.00, 0.00, 0
180018, -36940.64, -53775.70, 0.00, 0.00, 0.00, 0.00, 0.00, 0.00, 0
180019, -36960.55, -53830.29, 0.00, 0.00, 0.00, 0.00, 0.00, 0.00, 0
180020, -36956.44, -53730.91, 0.00, 0.00, 0.00, 0.00, 0.00, 0.00, 0
180021, -36937.22, -53654.76, 0.00, 0.00, 0.00, 0.00, 0.00, 0.00, 0
180022, -36942.89, -53746.24, 0.00, 0.00, 0.00, 0.00, 0.00, 0.00, 0
180023, -36967.44, -53829.35, 0.00, 0.00, 0.00, 0.00, 0.00, 0.00, 0
180024, -36964.84, -53748.95, 0.00, 0.00, 0.00, 0.00, 0.00, 0.00, 0
180025, -36944.95, -53667.25, 0.00, 0.00, 0.00, 0.00, 0.00, 0.00, 0
180026, -36941.98, -53735.02, 0.00, 0.00, 0.00, 0.00, 0.00, 0.00, 0
180027, -36963.30, -53819.45, 0.00, 0.00, 0.00, 0.00, 0.00, 0.00, 0
180028, -36966.90, -53762.07, 0.00, 0.00, 0.00, 0.00, 0.00, 0.00, 0
180029, -36942.78, -53658.85, 0.00, 0.00, 0.00, 0.00, 0.00, 0.00, 0
180030, -36934.60, -53708.31, 0.00, 0.00, 0.00, 0.00, 0.00, 0.00, 0
180031, -36955.25, -53822.80, 0.00, 0.00, 0.00, 0.00, 0.00, 0.00, 0
180032, -36963.23, -53791.13, 0.00, 0.00, 0.00, 0.00, 0.00, 0.00, 0
180033, -36941.73, -53662.45, 0.00, 0.00, 0.00, 0.00, 0.00, 0.00, 0
180034, -36921.84, -53659.83, 0.00, 0.00, 0.00, 0.00, 0.00, 0.00, 0
180035, -36940.19, -53784.64, 0.00, 0.00, 0.00, 0.00, 0.00, 0.00, 0
180036, -36968.00, -53795.82, 0.00, 0.00, 0.00, 0.00, 0.00, 0.00, 0
180037, -36955.64, -53683.21, 0.00, 0.00, 0.00, 0.00, 0.00, 0.00, 0
180038, -36927.96, -53658.63, 0.00, 0.00, 0.00, 0.00, 0.00, 0.00, 0
180039, -36946.94, -53756.39, 0.00, 0.00, 0.00, 0.00, 0.00, 0.00, 0
180040, -36971.15, -53795.64, 0.00, 0.00, 0.00, 0.00, 0.00, 0.00, 0
180041, -36963.17, -53693.61, 0.00, 0.00, 0.00, 0.00, 0.00, 0.00, 0
180042, -36945.38, -53644.05, 0.00, 0.00, 0.00, 0.00, 0.00, 0.00, 0
180043, -36958.14, -53756.84, 0.00, 0.00, 0.00, 0.00, 0.00, 0.00, 0
180044, -36992.14, -53834.62, 0.00, 0.00, 0.00, 0.00, 0.00, 0.00, 0
180045, -36993.50, -53733.86, 0.00, 0.00, 0.00, 0.00, 0.00, 0.00, 0
180046, -36974.28, -53671.66, 0.00, 0.00, 0.00, 0.00, 0.00, 0.00, 0
180047, -36980.69, -53766.92, 0.00, 0.00, 0.00, 0.00, 0.00, 0.00, 0
180048, -37007.58, -53839.52, 0.00, 0.00, 0.00, 0.00, 0.00, 0.00, 0
180049, -37014.00, -53770.70, 0.00, 0.00, 0.00, 0.00, 0.00, 0.00, 0
180050, -36995.02, -53695.95, 0.00, 0.00, 0.00, 0.00, 0.00, 0.00, 0
180051, -36988.87, -53762.36, 0.00, 0.00, 0.00, 0.00, 0.00, 0.00, 0
180052, -37018.78, -53848.79, 0.00, 0.00, 0.00, 0.00, 0.00, 0.00, 0
180053, -37027.50, -53799.26, 0.00, 0.00, 0.00, 0.00, 0.00, 0.00, 0
180054, -37007.60, -53692.38, 0.00, 0.00, 0.00, 0.00, 0.00, 0.00, 0
180055, -37004.56, -53726.17, 0.00, 0.00, 0.00, 0.00, 0.00, 0.00, 0
180056, -37025.35, -53831.61, 0.00, 0.00, 0.00, 0.00, 0.00, 0.00, 0
180057, -37035.01, -53804.09, 0.00, 0.00, 0.00, 0.00, 0.00, 0.00, 0
180058, -37014.58, -53683.79, 0.00, 0.00, 0.00, 0.00, 0.00, 0.00, 0
180059, -36993.61, -53670.71, 0.00, 0.00, 0.00, 0.00, 0.00, 0.00, 0
180060, -37008.54, -53781.78, 0.00, 0.00, 0.00, 0.00, 0.00, 0.00, 0
180061, -37028.95, -53815.55, 0.00, 0.00, 0.00, 0.00, 0.00, 0.00, 0
180062, -37020.90, -53713.90, 0.00, 0.00, 0.00, 0.00, 0.00, 0.00, 0
180063, -37007.13, -53686.21, 0.00, 0.00, 0.00, 0.00, 0.00, 0.00, 0
180064, -37020.43, -53784.84, 0.00, 0.00, 0.00, 0.00, 0.00, 0.00, 0
180065, -37039.59, -53823.04, 0.00, 0.00, 0.00, 0.00, 0.00, 0.00, 0
180066, -37032.57, -53728.00, 0.00, 0.00, 0.00, 0.00, 0.00, 0.00, 0
180067, -37011.89, -53677.24, 0.00, 0.00, 0.00, 0.00, 0.00, 0.00, 0
180068, -37015.74, -53770.58, 0.00, 0.00, 0.00, 0.00, 0.00, 0.00, 0
180069, -37036.88, -53828.79, 0.00, 0.00, 0.00, 0.00, 0.00, 0.00, 0
180070, -37032.17, -53739.18, 0.00, 0.00, 0.00, 0.00, 0.00, 0.00, 0
180071, -37013.95, -53674.54, 0.00, 0.00, 0.00, 0.00, 0.00, 0.00, 0
180072, -37014.40, -53746.80, 0.00, 0.00, 0.00, 0.00, 0.00, 0.00, 0
180073, -37034.98, -53824.94, 0.00, 0.00, 0.00, 0.00, 0.00, 0.00, 0
180074, -37039.45, -53760.17, 0.00, 0.00, 0.00, 0.00, 0.00, 0.00, 0
180075, -37020.46, -53671.21, 0.00, 0.00, 0.00, 0.00, 0.00, 0.00, 0
180076, -37013.01, -53726.55, 0.00, 0.00, 0.00, 0.00, 0.00, 0.00, 0
180077, -37028.93, -53823.87, 0.00, 0.00, 0.00, 0.00, 0.00, 0.00, 0
180078, -37036.19, -53790.48, 0.00, 0.00, 0.00, 0.00, 0.00, 0.00, 0
180079, -37020.77, -53686.41, 0.00, 0.00, 0.00, 0.00, 0.00, 0.00, 0
180080, -37014.60, -53715.20, 0.00, 0.00, 0.00, 0.00, 0.00, 0.00, 0
180081, -37034.63, -53821.48, 0.00, 0.00, 0.00, 0.00, 0.00, 0.00, 0
180082, -37044.46, -53795.42, 0.00, 0.00, 0.00, 0.00, 0.00, 0.00, 0
180083, -37025.04, -53670.36, 0.00, 0.00, 0.00, 0.00, 0.00, 0.00, 0
180084, -37010.73, -53682.25, 0.00, 0.00, 0.00, 0.00, 0.00, 0.00, 0
180085, -37024.90, -53797.52, 0.00, 0.00, 0.00, 0.00, 0.00, 0.00, 0
180086, -37039.14, -53811.29, 0.00, 0.00, 0.00, 0.00, 0.00, 0.00, 0
180087, -37026.18, -53704.73, 0.00, 0.00, 0.00, 0.00, 0.00, 0.00, 0
180088, -37009.04, -53677.42, 0.00, 0.00, 0.00, 0.00, 0.00, 0.00, 0
180089, -37020.23, -53791.89, 0.00, 0.00, 0.00, 0.00, 0.00, 0.00, 0
180090, -37040.84, -53836.57, 0.00, 0.00, 0.00, 0.00, 0.00, 0.00, 0
180091, -37033.42, -53728.88, 0.00, 0.00, 0.00, 0.00, 0.00, 0.00, 0
180092, -37015.43, -53669.22, 0.00, 0.00, 0.00, 0.00, 0.00, 0.00, 0
180093, -37016.14, -53753.75, 0.00, 0.00, 0.00, 0.00, 0.00, 0.00, 0
180094, -37035.21, -53806.59, 0.00, 0.00, 0.00, 0.00, 0.00, 0.00, 0
180095, -37032.28, -53728.61, 0.00, 0.00, 0.00, 0.00, 0.00, 0.00, 0
180096, -37009.05, -53655.18, 0.00, 0.00, 0.00, 0.00, 0.00, 0.00, 0
180097, -37007.58, -53738.82, 0.00, 0.00, 0.00, 0.00, 0.00, 0.00, 0
180098, -37029.55, -53833.95, 0.00, 0.00, 0.00, 0.00, 0.00, 0.00, 0
180099, -37032.01, -53768.46, 0.00, 0.00, 0.00, 0.00, 0.00, 0.00, 0
180100, -37013.62, -53664.28, 0.00, 0.00, 0.00, 0.00, 0.00, 0.00, 0
180101, -37007.20, -53711.44, 0.00, 0.00, 0.00, 0.00, 0.00, 0.00, 0
180102, -37031.68, -53805.68, 0.00, 0.00, 0.00, 0.00, 0.00, 0.00, 0
180103, -37041.98, -53767.66, 0.00, 0.00, 0.00, 0.00, 0.00, 0.00, 0
180104, -37022.00, -53672.19, 0.00, 0.00, 0.00, 0.00, 0.00, 0.00, 0
180105, -37010.89, -53698.72, 0.00, 0.00, 0.00, 0.00, 0.00, 0.00, 0
180106, -37027.38, -53793.14, 0.00, 0.00, 0.00, 0.00, 0.00, 0.00, 0
180107, -37045.13, -53786.54, 0.00, 0.00, 0.00, 0.00, 0.00, 0.00, 0
180108, -37031.50, -53695.82, 0.00, 0.00, 0.00, 0.00, 0.00, 0.00, 0
180109, -37015.20, -53695.35, 0.00, 0.00, 0.00, 0.00, 0.00, 0.00, 0
180110, -37030.38, -53805.92, 0.00, 0.00, 0.00, 0.00, 0.00, 0.00, 0
180111, -37045.02, -53817.28, 0.00, 0.00, 0.00, 0.00, 0.00, 0.00, 0
180112, -37033.24, -53702.28, 0.00, 0.00, 0.00, 0.00, 0.00, 0.00, 0
180113, -37015.36, -53663.79, 0.00, 0.00, 0.00, 0.00, 0.00, 0.00, 0
180114, -37022.96, -53762.00, 0.00, 0.00, 0.00, 0.00, 0.00, 0.00, 0
180115, -37044.64, -53807.49, 0.00, 0.00, 0.00, 0.00, 0.00, 0.00, 0
180116, -37039.68, -53726.98, 0.00, 0.00, 0.00, 0.00, 0.00, 0.00, 0
180117, -37021.57, -53661.57, 0.00, 0.00, 0.00, 0.00, 0.00, 0.00, 0
180118, -37023.47, -53742.46, 0.00, 0.00, 0.00, 0.00, 0.00, 0.00, 0
180119, -37046.27, -53820.96, 0.00, 0.00, 0.00, 0.00, 0.00, 0.00, 0
180120, -37045.13, -53757.64, 0.00, 0.00, 0.00, 0.00, 0.00, 0.00, 0
180121, -37022.27, -53680.37, 0.00, 0.00, 0.00, 0.00, 0.00, 0.00, 0
180122, -37024.64, -53740.27, 0.00, 0.00, 0.00, 0.00, 0.00, 0.00, 0
180123, -37053.07, -53818.35, 0.00, 0.00, 0.00, 0.00, 0.00, 0.00, 0
180124, -37054.07, -53751.81, 0.00, 0.00, 0.00, 0.00, 0.00, 0.00, 0
180125, -37027.43, -53655.92, 0.00, 0.00, 0.00, 0.00, 0.00, 0.00, 0
180126, -37016.36, -53706.52, 0.00, 0.00, 0.00, 0.00, 0.00, 0.00, 0
180127, -37038.16, -53805.14, 0.00, 0.00, 0.00, 0.00, 0.00, 0.00, 0
180128, -37050.63, -53766.27, 0.00, 0.00, 0.00, 0.00, 0.00, 0.00, 0
180129, -37033.06, -53666.36, 0.00, 0.00, 0.00, 0.00, 0.00, 0.00, 0
180130, -37021.35, -53695.71, 0.00, 0.00, 0.00, 0.00, 0.00, 0.00, 0
180131, -37039.45, -53798.90, 0.00, 0.00, 0.00, 0.00, 0.00, 0.00, 0
180132, -37051.68, -53801.74, 0.00, 0.00, 0.00, 0.00, 0.00, 0.00, 0
180133, -37034.71, -53702.46, 0.00, 0.00, 0.00, 0.00, 0.00, 0.00, 0
180134, -37023.96, -53688.53, 0.00, 0.00, 0.00, 0.00, 0.00, 0.00, 0
180135, -37037.89, -53792.54, 0.00, 0.00, 0.00, 0.00, 0.00, 0.00, 0
180136, -37055.79, -53802.50, 0.00, 0.00, 0.00, 0.00, 0.00, 0.00, 0
180137, -37043.19, -53676.64, 0.00, 0.00, 0.00, 0.00, 0.00, 0.00, 0
180138, -37022.42, -53647.92, 0.00, 0.00, 0.00, 0.00, 0.00, 0.00, 0
180139, -37031.27, -53774.52, 0.00, 0.00, 0.00, 0.00, 0.00, 0.00, 0
180140, -37055.28, -53812.67, 0.00, 0.00, 0.00, 0.00, 0.00, 0.00, 0
180141, -37049.27, -53706.14, 0.00, 0.00, 0.00, 0.00, 0.00, 0.00, 0
180142, -37025.15, -53660.70, 0.00, 0.00, 0.00, 0.00, 0.00, 0.00, 0
180143, -37030.80, -53762.85, 0.00, 0.00, 0.00, 0.00, 0.00, 0.00, 0
180144, -37054.52, -53832.32, 0.00, 0.00, 0.00, 0.00, 0.00, 0.00, 0
180145, -37057.31, -53752.90, 0.00, 0.00, 0.00, 0.00, 0.00, 0.00, 0
180146, -37039.12, -53673.24, 0.00, 0.00, 0.00, 0.00, 0.00, 0.00, 0
180147, -37034.63, -53737.70, 0.00, 0.00, 0.00, 0.00, 0.00, 0.00, 0
180148, -37055.75, -53812.56, 0.00, 0.00, 0.00, 0.00, 0.00, 0.00, 0
180149, -37059.44, -53752.17, 0.00, 0.00, 0.00, 0.00, 0.00, 0.00, 0
180150, -37038.34, -53661.82, 0.00, 0.00, 0.00, 0.00, 0.00, 0.00, 0
180151, -37025.46, -53701.81, 0.00, 0.00, 0.00, 0.00, 0.00, 0.00, 0
180152, -37044.37, -53798.75, 0.00, 0.00, 0.00, 0.00, 0.00, 0.00, 0
180153, -37051.99, -53771.41, 0.00, 0.00, 0.00, 0.00, 0.00, 0.00, 0
180154, -37031.74, -53664.55, 0.00, 0.00, 0.00, 0.00, 0.00, 0.00, 0
180155, -37017.50, -53672.01, 0.00, 0.00, 0.00, 0.00, 0.00, 0.00, 0
180156, -37034.09, -53784.87, 0.00, 0.00, 0.00, 0.00, 0.00, 0.00, 0
180157, -37047.34, -53797.56, 0.00, 0.00, 0.00, 0.00, 0.00, 0.00, 0
180158, -37032.48, -53683.90, 0.00, 0.00, 0.00, 0.00, 0.00, 0.00, 0
180159, -37014.02, -53657.80, 0.00, 0.00, 0.00, 0.00, 0.00, 0.00, 0
180160, -37023.45, -53759.18, 0.00, 0.00, 0.00, 0.00, 0.00, 0.00, 0
180161, -37045.29, -53785.20, 0.00, 0.00, 0.00, 0.00, 0.00, 0.00, 0
180162, -37034.05, -53668.10, 0.00, 0.00, 0.00, 0.00, 0.00, 0.00, 0
180163, -37012.61, -53644.01, 0.00, 0.00, 0.00, 0.00, 0.00, 0.00, 0
180164, -37021.86, -53762.52, 0.00, 0.00, 0.00, 0.00, 0.00, 0.00, 0
180165, -37042.79, -53797.32, 0.00, 0.00, 0.00, 0.00, 0.00, 0.00, 0
180166, -37038.05, -53695.44, 0.00, 0.00, 0.00, 0.00, 0.00, 0.00, 0
180167, -37017.50, -53631.36, 0.00, 0.00, 0.00, 0.00, 0.00, 0.00, 0
180168, -37021.89, -53726.91, 0.00, 0.00, 0.00, 0.00, 0.00, 0.00, 0
180169, -37048.44, -53807.35, 0.00, 0.00, 0.00, 0.00, 0.00, 0.00, 0
180170, -37043.01, -53735.36, 0.00, 0.00, 0.00, 0.00, 0.00, 0.00, 0
180171, -37015.47, -53652.81, 0.00, 0.00, 0.00, 0.00, 0.00, 0.00, 0
180172, -37011.76, -53715.75, 0.00, 0.00, 0.00, 0.00, 0.00, 0.00, 0
180173, -37037.31, -53792.96, 0.00, 0.00, 0.00, 0.00, 0.00, 0.00, 0
180174, -37043.93, -53738.11, 0.00, 0.00, 0.00, 0.00, 0.00, 0.00, 0
180175, -37019.45, -53636.88, 0.00, 0.00, 0.00, 0.00, 0.00, 0.00, 0
180176, -37007.98, -53663.77, 0.00, 0.00, 0.00, 0.00, 0.00, 0.00, 0
180177, -37030.52, -53775.28, 0.00, 0.00, 0.00, 0.00, 0.00, 0.00, 0
180178, -37043.57, -53762.45, 0.00, 0.00, 0.00, 0.00, 0.00, 0.00, 0
180179, -37029.62, -53665.78, 0.00, 0.00, 0.00, 0.00, 0.00, 0.00, 0
180180, -37015.20, -53685.91, 0.00, 0.00, 0.00, 0.00, 0.00, 0.00, 0
180181, -37026.91, -53785.38, 0.00, 0.00, 0.00, 0.00, 0.00, 0.00, 0
180182, -37044.59, -53772.08, 0.00, 0.00, 0.00, 0.00, 0.00, 0.00, 0
180183, -37034.07, -53672.53, 0.00, 0.00, 0.00, 0.00, 0.00, 0.00, 0
180184, -37014.02, -53661.44, 0.00, 0.00, 0.00, 0.00, 0.00, 0.00, 0
180185, -37031.54, -53770.36, 0.00, 0.00, 0.00, 0.00, 0.00, 0.00, 0
180186, -37052.42, -53801.50, 0.00, 0.00, 0.00, 0.00, 0.00, 0.00, 0
180187, -37042.67, -53700.98, 0.00, 0.00, 0.00, 0.00, 0.00, 0.00, 0
180188, -37024.30, -53652.59, 0.00, 0.00, 0.00, 0.00, 0.00, 0.00, 0
180189, -37030.58, -53751.99, 0.00, 0.00, 0.00, 0.00, 0.00, 0.00, 0
180190, -37054.86, -53802.37, 0.00, 0.00, 0.00, 0.00, 0.00, 0.00, 0
180191, -37050.68, -53711.29, 0.00, 0.00, 0.00, 0.00, 0.00, 0.00, 0
180192, -37026.71, -53636.79, 0.00, 0.00, 0.00, 0.00, 0.00, 0.00, 0
180193, -37026.91, -53716.70, 0.00, 0.00, 0.00, 0.00, 0.00, 0.00, 0
180194, -37050.41, -53800.25, 0.00, 0.00, 0.00, 0.00, 0.00, 0.00, 0
180195, -37050.41, -53723.45, 0.00, 0.00, 0.00, 0.00, 0.00, 0.00, 0
180196, -37024.75, -53620.22, 0.00, 0.00, 0.00, 0.00, 0.00, 0.00, 0
180197, -37014.49, -53679.10, 0.00, 0.00, 0.00, 0.00, 0.00, 0.00, 0
180198, -37036.57, -53789.65, 0.00, 0.00, 0.00, 0.00, 0.00, 0.00, 0
180199, -37047.81, -53755.14, 0.00, 0.00, 0.00, 0.00, 0.00, 0.00, 0
180200, -37026.36, -53642.71, 0.00, 0.00, 0.00, 0.00, 0.00, 0.00, 0
180201, -37013.28, -53683.64, 0.00, 0.00, 0.00, 0.00, 0.00, 0.00, 0
180202, -37035.25, -53798.39, 0.00, 0.00, 0.00, 0.00, 0.00, 0.00, 0
180203, -37047.86, -53776.37, 0.00, 0.00, 0.00, 0.00, 0.00, 0.00, 0
180204, -37026.54, -53653.48, 0.00, 0.00, 0.00, 0.00, 0.00, 0.00, 0
180205, -37012.52, -53650.27, 0.00, 0.00, 0.00, 0.00, 0.00, 0.00, 0
180206, -37031.63, -53755.79, 0.00, 0.00, 0.00, 0.00, 0.00, 0.00, 0
180207, -37047.90, -53767.39, 0.00, 0.00, 0.00, 0.00, 0.00, 0.00, 0
180208, -37033.46, -53681.13, 0.00, 0.00, 0.00, 0.00, 0.00, 0.00, 0
180209, -37014.18, -53686.18, 0.00, 0.00, 0.00, 0.00, 0.00, 0.00, 0
180210, -37024.79, -53799.57, 0.00, 0.00, 0.00, 0.00, 0.00, 0.00, 0
180211, -37047.21, -53813.32, 0.00, 0.00, 0.00, 0.00, 0.00, 0.00, 0
180212, -37040.06, -53686.79, 0.00, 0.00, 0.00, 0.00, 0.00, 0.00, 0
180213, -37014.00, -53628.94, 0.00, 0.00, 0.00, 0.00, 0.00, 0.00, 0
180214, -37022.40, -53739.58, 0.00, 0.00, 0.00, 0.00, 0.00, 0.00, 0
180215, -37042.02, -53805.81, 0.00, 0.00, 0.00, 0.00, 0.00, 0.00, 0
180216, -37036.08, -53720.40, 0.00, 0.00, 0.00, 0.00, 0.00, 0.00, 0
180217, -37014.69, -53645.26, 0.00, 0.00, 0.00, 0.00, 0.00, 0.00, 0
180218, -37018.13, -53725.21, 0.00, 0.00, 0.00, 0.00, 0.00, 0.00, 0
180219, -37043.63, -53800.56, 0.00, 0.00, 0.00, 0.00, 0.00, 0.00, 0
180220, -37042.92, -53725.75, 0.00, 0.00, 0.00, 0.00, 0.00, 0.00, 0
180221, -37024.52, -53625.77, 0.00, 0.00, 0.00, 0.00, 0.00, 0.00, 0
180222, -37020.57, -53666.52, 0.00, 0.00, 0.00, 0.00, 0.00, 0.00, 0
180223, -37043.05, -53772.64, 0.00, 0.00, 0.00, 0.00, 0.00, 0.00, 0
180224, -37050.36, -53742.09, 0.00, 0.00, 0.00, 0.00, 0.00, 0.00, 0
180225, -37028.43, -53624.63, 0.00, 0.00, 0.00, 0.00, 0.00, 0.00, 0
180226, -37013.30, -53659.45, 0.00, 0.00, 0.00, 0.00, 0.00, 0.00, 0
180227, -37029.33, -53785.74, 0.00, 0.00, 0.00, 0.00, 0.00, 0.00, 0
180228, -37041.46, -53782.88, 0.00, 0.00, 0.00, 0.00, 0.00, 0.00, 0
180229, -37027.32, -53661.75, 0.00, 0.00, 0.00, 0.00, 0.00, 0.00, 0
180230, -37015.11, -53654.29, 0.00, 0.00, 0.00, 0.00, 0.00, 0.00, 0
180231, -37036.32, -53767.77, 0.00, 0.00, 0.00, 0.00, 0.00, 0.00, 0
180232, -37060.13, -53786.72, 0.00, 0.00, 0.00, 0.00, 0.00, 0.00, 0
180233, -37040.10, -53679.86, 0.00, 0.00, 0.00, 0.00, 0.00, 0.00, 0
180234, -37010.78, -53655.54, 0.00, 0.00, 0.00, 0.00, 0.00, 0.00, 0
180235, -37018.64, -53755.65, 0.00, 0.00, 0.00, 0.00, 0.00, 0.00, 0
180236, -37041.40, -53768.55, 0.00, 0.00, 0.00, 0.00, 0.00, 0.00, 0
180237, -37040.10, -53673.49, 0.00, 0.00, 0.00, 0.00, 0.00, 0.00, 0
180238, -37017.41, -53640.41, 0.00, 0.00, 0.00, 0.00, 0.00, 0.00, 0
180239, -37014.89, -53730.82, 0.00, 0.00, 0.00, 0.00, 0.00, 0.00, 0
180240, -37036.30, -53794.46, 0.00, 0.00, 0.00, 0.00, 0.00, 0.00, 0
180241, -37039.90, -53713.34, 0.00, 0.00, 0.00, 0.00, 0.00, 0.00, 0
180242, -37021.73, -53639.13, 0.00, 0.00, 0.00, 0.00, 0.00, 0.00, 0
180243, -37019.11, -53714.73, 0.00, 0.00, 0.00, 0.00, 0.00, 0.00, 0
180244, -37042.92, -53794.75, 0.00, 0.00, 0.00, 0.00, 0.00, 0.00, 0
180245, -37048.30, -53722.50, 0.00, 0.00, 0.00, 0.00, 0.00, 0.00, 0
180246, -37025.08, -53616.09, 0.00, 0.00, 0.00, 0.00, 0.00, 0.00, 0
180247, -37017.77, -53665.22, 0.00, 0.00, 0.00, 0.00, 0.00, 0.00, 0
180248, -37040.17, -53774.07, 0.00, 0.00, 0.00, 0.00, 0.00, 0.00, 0
180249, -37048.44, -53730.91, 0.00, 0.00, 0.00, 0.00, 0.00, 0.00, 0
180250, -37024.37, -53634.64, 0.00, 0.00, 0.00, 0.00, 0.00, 0.00, 0
180251, -37012.61, -53681.49, 0.00, 0.00, 0.00, 0.00, 0.00, 0.00, 0
180252, -37031.21, -53787.28, 0.00, 0.00, 0.00, 0.00, 0.00, 0.00, 0
180253, -37046.56, -53764.93, 0.00, 0.00, 0.00, 0.00, 0.00, 0.00, 0
180254, -37030.07, -53649.04, 0.00, 0.00, 0.00, 0.00, 0.00, 0.00, 0
180255, -37015.85, -53641.08, 0.00, 0.00, 0.00, 0.00, 0.00, 0.00, 0
180256, -37032.39, -53746.94, 0.00, 0.00, 0.00, 0.00, 0.00, 0.00, 0
180257, -37049.07, -53755.70, 0.00, 0.00, 0.00, 0.00, 0.00, 0.00, 0
180258, -37034.20, -53652.43, 0.00, 0.00, 0.00, 0.00, 0.00, 0.00, 0
180259, -37017.66, -53640.68, 0.00, 0.00, 0.00, 0.00, 0.00, 0.00, 0
180260, -37027.43, -53752.28, 0.00, 0.00, 0.00, 0.00, 0.00, 0.00, 0
180261, -37050.61, -53785.29, 0.00, 0.00, 0.00, 0.00, 0.00, 0.00, 0
180262, -37045.38, -53676.59, 0.00, 0.00, 0.00, 0.00, 0.00, 0.00, 0
180263, -37025.04, -53622.70, 0.00, 0.00, 0.00, 0.00, 0.00, 0.00, 0
180264, -37026.47, -53725.14, 0.00, 0.00, 0.00, 0.00, 0.00, 0.00, 0
180265, -37045.87, -53798.55, 0.00, 0.00, 0.00, 0.00, 0.00, 0.00, 0
180266, -37043.59, -53708.49, 0.00, 0.00, 0.00, 0.00, 0.00, 0.00, 0
180267, -37022.45, -53619.57, 0.00, 0.00, 0.00, 0.00, 0.00, 0.00, 0
180268, -37020.48, -53690.27, 0.00, 0.00, 0.00, 0.00, 0.00, 0.00, 0
180269, -37048.02, -53762.58, 0.00, 0.00, 0.00, 0.00, 0.00, 0.00, 0
180270, -37055.55, -53704.29, 0.00, 0.00, 0.00, 0.00, 0.00, 0.00, 0
180271, -37029.39, -53628.74, 0.00, 0.00, 0.00, 0.00, 0.00, 0.00, 0
180272, -37019.38, -53676.30, 0.00, 0.00, 0.00, 0.00, 0.00, 0.00, 0
180273, -37044.02, -53774.25, 0.00, 0.00, 0.00, 0.00, 0.00, 0.00, 0
180274, -37055.57, -53724.81, 0.00, 0.00, 0.00, 0.00, 0.00, 0.00, 0
180275, -37034.92, -53597.38, 0.00, 0.00, 0.00, 0.00, 0.00, 0.00, 0
180276, -37020.12, -53619.75, 0.00, 0.00, 0.00, 0.00, 0.00, 0.00, 0
180277, -37038.00, -53742.24, 0.00, 0.00, 0.00, 0.00, 0.00, 0.00, 0
180278, -37054.50, -53756.08, 0.00, 0.00, 0.00, 0.00, 0.00, 0.00, 0
180279, -37036.19, -53654.29, 0.00, 0.00, 0.00, 0.00, 0.00, 0.00, 0
180280, -37016.19, -53648.63, 0.00, 0.00, 0.00, 0.00, 0.00, 0.00, 0
180281, -37025.08, -53754.87, 0.00, 0.00, 0.00, 0.00, 0.00, 0.00, 0
180282, -37041.24, -53755.74, 0.00, 0.00, 0.00, 0.00, 0.00, 0.00, 0
180283, -37034.58, -53659.14, 0.00, 0.00, 0.00, 0.00, 0.00, 0.00, 0
180284, -37019.14, -53639.85, 0.00, 0.00, 0.00, 0.00, 0.00, 0.00, 0
180285, -37027.25, -53735.89, 0.00, 0.00, 0.00, 0.00, 0.00, 0.00, 0
180286, -37049.58, -53776.93, 0.00, 0.00, 0.00, 0.00, 0.00, 0.00, 0
180287, -37045.94, -53674.94, 0.00, 0.00, 0.00, 0.00, 0.00, 0.00, 0
180288, -37020.72, -53605.88, 0.00, 0.00, 0.00, 0.00, 0.00, 0.00, 0
180289, -37018.00, -53699.33, 0.00, 0.00, 0.00, 0.00, 0.00, 0.00, 0
180290, -37042.23, -53775.88, 0.00, 0.00, 0.00, 0.00, 0.00, 0.00, 0
180291, -37042.94, -53697.96, 0.00, 0.00, 0.00, 0.00, 0.00, 0.00, 0
180292, -37018.69, -53611.75, 0.00, 0.00, 0.00, 0.00, 0.00, 0.00, 0
180293, -37012.07, -53681.94, 0.00, 0.00, 0.00, 0.00, 0.00, 0.00, 0
180294, -37034.80, -53767.32, 0.00, 0.00, 0.00, 0.00, 0.00, 0.00, 0
180295, -37040.57, -53695.30, 0.00, 0.00, 0.00, 0.00, 0.00, 0.00, 0
180296, -37018.22, -53587.21, 0.00, 0.00, 0.00, 0.00, 0.00, 0.00, 0
180297, -37011.38, -53663.50, 0.00, 0.00, 0.00, 0.00, 0.00, 0.00, 0
180298, -37032.79, -53800.63, 0.00, 0.00, 0.00, 0.00, 0.00, 0.00, 0
180299, -37045.80, -53754.76, 0.00, 0.00, 0.00, 0.00, 0.00, 0.00, 0
180300, -37029.89, -53629.14, 0.00, 0.00, 0.00, 0.00, 0.00, 0.00, 0
180301, -37017.48, -53650.27, 0.00, 0.00, 0.00, 0.00, 0.00, 0.00, 0
180302, -37034.02, -53763.43, 0.00, 0.00, 0.00, 0.00, 0.00, 0.00, 0
180303, -37054.36, -53745.35, 0.00, 0.00, 0.00, 0.00, 0.00, 0.00, 0
180304, -37043.23, -53626.15, 0.00, 0.00, 0.00, 0.00, 0.00, 0.00, 0
180305, -37027.70, -53628.14, 0.00, 0.00, 0.00, 0.00, 0.00, 0.00, 0
180306, -37041.18, -53752.64, 0.00, 0.00, 0.00, 0.00, 0.00, 0.00, 0
180307, -37058.99, -53779.26, 0.00, 0.00, 0.00, 0.00, 0.00, 0.00, 0
180308, -37044.11, -53670.47, 0.00, 0.00, 0.00, 0.00, 0.00, 0.00, 0
180309, -37018.78, -53623.82, 0.00, 0.00, 0.00, 0.00, 0.00, 0.00, 0
180310, -37020.16, -53724.45, 0.00, 0.00, 0.00, 0.00, 0.00, 0.00, 0
180311, -37040.39, -53772.02, 0.00, 0.00, 0.00, 0.00, 0.00, 0.00, 0
180312, -37036.55, -53671.27, 0.00, 0.00, 0.00, 0.00, 0.00, 0.00, 0
180313, -37018.40, -53614.19, 0.00, 0.00, 0.00, 0.00, 0.00, 0.00, 0
180314, -37021.84, -53716.85, 0.00, 0.00, 0.00, 0.00, 0.00, 0.00, 0
180315, -37047.50, -53792.00, 0.00, 0.00, 0.00, 0.00, 0.00, 0.00, 0
180316, -37046.59, -53710.01, 0.00, 0.00, 0.00, 0.00, 0.00, 0.00, 0
180317, -37024.61, -53627.04, 0.00, 0.00, 0.00, 0.00, 0.00, 0.00, 0
180318, -37020.99, -53693.00, 0.00, 0.00, 0.00, 0.00, 0.00, 0.00, 0
180319, -37048.29, -53781.00, 0.00, 0.00, 0.00, 0.00, 0.00, 0.00, 0
180320, -37061.29, -53726.24, 0.00, 0.00, 0.00, 0.00, 0.00, 0.00, 0
180321, -37039.54, -53623.80, 0.00, 0.00, 0.00, 0.00, 0.00, 0.00, 0
180322, -37026.13, -53655.70, 0.00, 0.00, 0.00, 0.00, 0.00, 0.00, 0
180323, -37046.47, -53748.75, 0.00, 0.00, 0.00, 0.00, 0.00, 0.00, 0
180324, -37060.02, -53720.38, 0.00, 0.00, 0.00, 0.00, 0.00, 0.00, 0
180325, -37036.46, -53621.34, 0.00, 0.00, 0.00, 0.00, 0.00, 0.00, 0
180326, -37020.66, -53656.21, 0.00, 0.00, 0.00, 0.00, 0.00, 0.00, 0
180327, -37042.74, -53771.52, 0.00, 0.00, 0.00, 0.00, 0.00, 0.00, 0
180328, -37056.89, -53771.10, 0.00, 0.00, 0.00, 0.00, 0.00, 0.00, 0
180329, -37034.16, -53637.86, 0.00, 0.00, 0.00, 0.00, 0.00, 0.00, 0
180330, -37012.79, -53604.76, 0.00, 0.00, 0.00, 0.00, 0.00, 0.00, 0
180331, -37023.90, -53725.50, 0.00, 0.00, 0.00, 0.00, 0.00, 0.00, 0
180332, -37048.60, -53769.09, 0.00, 0.00, 0.00, 0.00, 0.00, 0.00, 0
180333, -37040.95, -53657.21, 0.00, 0.00, 0.00, 0.00, 0.00, 0.00, 0
180334, -37018.78, -53615.22, 0.00, 0.00, 0.00, 0.00, 0.00, 0.00, 0
180335, -37024.59, -53733.55, 0.00, 0.00, 0.00, 0.00, 0.00, 0.00, 0
180336, -37049.07, -53779.55, 0.00, 0.00, 0.00, 0.00, 0.00, 0.00, 0
180337, -37043.59, -53665.22, 0.00, 0.00, 0.00, 0.00, 0.00, 0.00, 0
180338, -37023.70, -53594.03, 0.00, 0.00, 0.00, 0.00, 0.00, 0.00, 0
180339, -37028.97, -53704.04, 0.00, 0.00, 0.00, 0.00, 0.00, 0.00, 0
180340, -37052.91, -53780.69, 0.00, 0.00, 0.00, 0.00, 0.00, 0.00, 0
180341, -37061.34, -53692.93, 0.00, 0.00, 0.00, 0.00, 0.00, 0.00, 0
180342, -37038.88, -53600.69, 0.00, 0.00, 0.00, 0.00, 0.00, 0.00, 0
180343, -37021.55, -53672.77, 0.00, 0.00, 0.00, 0.00, 0.00, 0.00, 0
180344, -37042.58, -53768.28, 0.00, 0.00, 0.00, 0.00, 0.00, 0.00, 0
180345, -37054.74, -53709.74, 0.00, 0.00, 0.00, 0.00, 0.00, 0.00, 0
180346, -37028.77, -53598.41, 0.00, 0.00, 0.00, 0.00, 0.00, 0.00, 0
180347, -37014.84, -53640.27, 0.00, 0.00, 0.00, 0.00, 0.00, 0.00, 0
180348, -37039.68, -53771.68, 0.00, 0.00, 0.00, 0.00, 0.00, 0.00, 0
180349, -37057.05, -53752.95, 0.00, 0.00, 0.00, 0.00, 0.00, 0.00, 0
180350, -37043.93, -53624.09, 0.00, 0.00, 0.00, 0.00, 0.00, 0.00, 0
180351, -37019.81, -53621.97, 0.00, 0.00, 0.00, 0.00, 0.00, 0.00, 0
180352, -37025.91, -53744.86, 0.00, 0.00, 0.00, 0.00, 0.00, 0.00, 0
180353, -37043.41, -53757.91, 0.00, 0.00, 0.00, 0.00, 0.00, 0.00, 0
180354, -37033.20, -53638.39, 0.00, 0.00, 0.00, 0.00, 0.00, 0.00, 0
180355, -37017.77, -53628.63, 0.00, 0.00, 0.00, 0.00, 0.00, 0.00, 0
180356, -37023.59, -53750.04, 0.00, 0.00, 0.00, 0.00, 0.00, 0.00, 0
180357, -37042.25, -53782.23, 0.00, 0.00, 0.00, 0.00, 0.00, 0.00, 0
180358, -37036.48, -53669.04, 0.00, 0.00, 0.00, 0.00, 0.00, 0.00, 0
180359, -37017.21, -53602.03, 0.00, 0.00, 0.00, 0.00, 0.00, 0.00, 0
180360, -37019.61, -53681.29, 0.00, 0.00, 0.00, 0.00, 0.00, 0.00, 0
180361, -37045.02, -53755.50, 0.00, 0.00, 0.00, 0.00, 0.00, 0.00, 0
180362, -37044.28, -53687.35, 0.00, 0.00, 0.00, 0.00, 0.00, 0.00, 0
180363, -37020.01, -53616.78, 0.00, 0.00, 0.00, 0.00, 0.00, 0.00, 0
180364, -37015.80, -53703.06, 0.00, 0.00, 0.00, 0.00, 0.00, 0.00, 0
180365, -37035.81, -53781.40, 0.00, 0.00, 0.00, 0.00, 0.00, 0.00, 0
180366, -37041.20, -53703.73, 0.00, 0.00, 0.00, 0.00, 0.00, 0.00, 0
180367, -37022.67, -53614.37, 0.00, 0.00, 0.00, 0.00, 0.00, 0.00, 0
180368, -37020.16, -53676.59, 0.00, 0.00, 0.00, 0.00, 0.00, 0.00, 0
180369, -37043.57, -53768.55, 0.00, 0.00, 0.00, 0.00, 0.00, 0.00, 0
180370, -37053.47, -53727.89, 0.00, 0.00, 0.00, 0.00, 0.00, 0.00, 0
180371, -37032.75, -53622.84, 0.00, 0.00, 0.00, 0.00, 0.00, 0.00, 0
180372, -37019.07, -53636.00, 0.00, 0.00, 0.00, 0.00, 0.00, 0.00, 0
180373, -37035.59, -53734.08, 0.00, 0.00, 0.00, 0.00, 0.00, 0.00, 0
180374, -37047.16, -53726.37, 0.00, 0.00, 0.00, 0.00, 0.00, 0.00, 0
180375, -37031.68, -53621.43, 0.00, 0.00, 0.00, 0.00, 0.00, 0.00, 0
180376, -37013.26, -53625.68, 0.00, 0.00, 0.00, 0.00, 0.00, 0.00, 0
180377, -37026.22, -53723.24, 0.00, 0.00, 0.00, 0.00, 0.00, 0.00, 0
180378, -37044.71, -53717.57, 0.00, 0.00, 0.00, 0.00, 0.00, 0.00, 0
180379, -37031.16, -53628.25, 0.00, 0.00, 0.00, 0.00, 0.00, 0.00, 0
180380, -37011.16, -53603.37, 0.00, 0.00, 0.00, 0.00, 0.00, 0.00, 0
180381, -37020.97, -53706.59, 0.00, 0.00, 0.00, 0.00, 0.00, 0.00, 0
180382, -37040.24, -53765.96, 0.00, 0.00, 0.00, 0.00, 0.00, 0.00, 0
180383, -37033.09, -53661.20, 0.00, 0.00, 0.00, 0.00, 0.00, 0.00, 0
180384, -37014.18, -53591.23, 0.00, 0.00, 0.00, 0.00, 0.00, 0.00, 0
180385, -37018.76, -53689.85, 0.00, 0.00, 0.00, 0.00, 0.00, 0.00, 0
180386, -37041.18, -53765.13, 0.00, 0.00, 0.00, 0.00, 0.00, 0.00, 0
180387, -37038.34, -53682.45, 0.00, 0.00, 0.00, 0.00, 0.00, 0.00, 0
180388, -37013.73, -53597.18, 0.00, 0.00, 0.00, 0.00, 0.00, 0.00, 0
180389, -37008.36, -53646.24, 0.00, 0.00, 0.00, 0.00, 0.00, 0.00, 0
180390, -37032.70, -53727.40, 0.00, 0.00, 0.00, 0.00, 0.00, 0.00, 0
180391, -37041.78, -53690.50, 0.00, 0.00, 0.00, 0.00, 0.00, 0.00, 0
180392, -37023.92, -53616.38, 0.00, 0.00, 0.00, 0.00, 0.00, 0.00, 0
180393, -37014.00, -53663.36, 0.00, 0.00, 0.00, 0.00, 0.00, 0.00, 0
180394, -37030.67, -53758.16, 0.00, 0.00, 0.00, 0.00, 0.00, 0.00, 0
180395, -37034.20, -53717.25, 0.00, 0.00, 0.00, 0.00, 0.00, 0.00, 0
180396, -37016.63, -53604.49, 0.00, 0.00, 0.00, 0.00, 0.00, 0.00, 0
180397, -37006.55, -53615.29, 0.00, 0.00, 0.00, 0.00, 0.00, 0.00, 0
180398, -37024.55, -53712.16, 0.00, 0.00, 0.00, 0.00, 0.00, 0.00, 0
180399, -37039.63, -53712.22, 0.00, 0.00, 0.00, 0.00, 0.00, 0.00, 0
180400, -37028.14, -53631.18, 0.00, 0.00, 0.00, 0.00, 0.00, 0.00, 0
180401, -37013.17, -53638.53, 0.00, 0.00, 0.00, 0.00, 0.00, 0.00, 0
180402, -37027.23, -53741.66, 0.00, 0.00, 0.00, 0.00, 0.00, 0.00, 0
180403, -37047.57, -53754.74, 0.00, 0.00, 0.00, 0.00, 0.00, 0.00, 0
180404, -37034.16, -53640.25, 0.00, 0.00, 0.00, 0.00, 0.00, 0.00, 0
180405, -37008.72, -53601.96, 0.00, 0.00, 0.00, 0.00, 0.00, 0.00, 0
180406, -37015.76, -53702.66, 0.00, 0.00, 0.00, 0.00, 0.00, 0.00, 0
180407, -37038.18, -53753.29, 0.00, 0.00, 0.00, 0.00, 0.00, 0.00, 0
180408, -37032.19, -53653.82, 0.00, 0.00, 0.00, 0.00, 0.00, 0.00, 0
180409, -37009.70, -53591.55, 0.00, 0.00, 0.00, 0.00, 0.00, 0.00, 0
180410, -37011.22, -53688.73, 0.00, 0.00, 0.00, 0.00, 0.00, 0.00, 0
180411, -37032.46, -53742.53, 0.00, 0.00, 0.00, 0.00, 0.00, 0.00, 0
180412, -37032.91, -53656.05, 0.00, 0.00, 0.00, 0.00, 0.00, 0.00, 0
180413, -37016.03, -53581.80, 0.00, 0.00, 0.00, 0.00, 0.00, 0.00, 0
180414, -37007.31, -53657.46, 0.00, 0.00, 0.00, 0.00, 0.00, 0.00, 0
180415, -37019.09, -53761.02, 0.00, 0.00, 0.00, 0.00, 0.00, 0.00, 0
180416, -37028.77, -53710.75, 0.00, 0.00, 0.00, 0.00, 0.00, 0.00, 0
180417, -37011.49, -53610.34, 0.00, 0.00, 0.00, 0.00, 0.00, 0.00, 0
180418, -36999.38, -53653.26, 0.00, 0.00, 0.00, 0.00, 0.00, 0.00, 0
180419, -37020.48, -53750.51, 0.00, 0.00, 0.00, 0.00, 0.00, 0.00, 0
180420, -37029.33, -53721.39, 0.00, 0.00, 0.00, 0.00, 0.00, 0.00, 0
180421, -37008.27, -53620.54, 0.00, 0.00, 0.00, 0.00, 0.00, 0.00, 0
180422, -36989.81, -53631.42, 0.00, 0.00, 0.00, 0.00, 0.00, 0.00, 0
180423, -37004.83, -53736.32, 0.00, 0.00, 0.00, 0.00, 0.00, 0.00, 0
180424, -37022.51, -53732.12, 0.00, 0.00, 0.00, 0.00, 0.00, 0.00, 0
180425, -37014.24, -53622.41, 0.00, 0.00, 0.00, 0.00, 0.00, 0.00, 0
180426, -36992.89, -53604.87, 0.00, 0.00, 0.00, 0.00, 0.00, 0.00, 0
180427, -37001.90, -53702.99, 0.00, 0.00, 0.00, 0.00, 0.00, 0.00, 0
180428, -37019.23, -53727.27, 0.00, 0.00, 0.00, 0.00, 0.00, 0.00, 0
180429, -37009.04, -53629.86, 0.00, 0.00, 0.00, 0.00, 0.00, 0.00, 0
180430, -36994.82, -53590.83, 0.00, 0.00, 0.00, 0.00, 0.00, 0.00, 0
180431, -37002.69, -53695.55, 0.00, 0.00, 0.00, 0.00, 0.00, 0.00, 0
180432, -37022.63, -53752.05, 0.00, 0.00, 0.00, 0.00, 0.00, 0.00, 0
180433, -37020.23, -53664.39, 0.00, 0.00, 0.00, 0.00, 0.00, 0.00, 0
180434, -36999.55, -53608.42, 0.00, 0.00, 0.00, 0.00, 0.00, 0.00, 0
180435, -37003.02, -53688.80, 0.00, 0.00, 0.00, 0.00, 0.00, 0.00, 0
180436, -37025.13, -53756.05, 0.00, 0.00, 0.00, 0.00, 0.00, 0.00, 0
180437, -37025.89, -53683.28, 0.00, 0.00, 0.00, 0.00, 0.00, 0.00, 0
180438, -37007.20, -53592.75, 0.00, 0.00, 0.00, 0.00, 0.00, 0.00, 0
180439, -37001.55, -53657.68, 0.00, 0.00, 0.00, 0.00, 0.00, 0.00, 0
180440, -37024.57, -53760.44, 0.00, 0.00, 0.00, 0.00, 0.00, 0.00, 0
180441, -37031.83, -53709.27, 0.00, 0.00, 0.00, 0.00, 0.00, 0.00, 0
180442, -37012.95, -53597.47, 0.00, 0.00, 0.00, 0.00, 0.00, 0.00, 0
180443, -37005.70, -53637.05, 0.00, 0.00, 0.00, 0.00, 0.00, 0.00, 0
180444, -37028.17, -53751.34, 0.00, 0.00, 0.00, 0.00, 0.00, 0.00, 0
180445, -37039.01, -53737.57, 0.00, 0.00, 0.00, 0.00, 0.00, 0.00, 0
180446, -37019.32, -53619.22, 0.00, 0.00, 0.00, 0.00, 0.00, 0.00, 0
180447, -37006.57, -53622.93, 0.00, 0.00, 0.00, 0.00, 0.00, 0.00, 0
180448, -37019.29, -53729.77, 0.00, 0.00, 0.00, 0.00, 0.00, 0.00, 0
180449, -37032.32, -53730.24, 0.00, 0.00, 0.00, 0.00, 0.00, 0.00, 0
180450, -37018.00, -53621.03, 0.00, 0.00, 0.00, 0.00, 0.00, 0.00, 0
180451, -36999.09, -53604.80, 0.00, 0.00, 0.00, 0.00, 0.00, 0.00, 0
180452, -37007.69, -53719.00, 0.00, 0.00, 0.00, 0.00, 0.00, 0.00, 0
180453, -37022.45, -53743.79, 0.00, 0.00, 0.00, 0.00, 0.00, 0.00, 0
180454, -37014.69, -53632.88, 0.00, 0.00, 0.00, 0.00, 0.00, 0.00, 0
180455, -36993.66, -53568.95, 0.00, 0.00, 0.00, 0.00, 0.00, 0.00, 0
180456, -36999.51, -53668.64, 0.00, 0.00, 0.00, 0.00, 0.00, 0.00, 0
180457, -37018.06, -53731.69, 0.00, 0.00, 0.00, 0.00, 0.00, 0.00, 0
180458, -37013.79, -53637.99, 0.00, 0.00, 0.00, 0.00, 0.00, 0.00, 0
180459, -36996.23, -53569.33, 0.00, 0.00, 0.00, 0.00, 0.00, 0.00, 0
180460, -37002.55, -53675.84, 0.00, 0.00, 0.00, 0.00, 0.00, 0.00, 0
180461, -37024.86, -53761.80, 0.00, 0.00, 0.00, 0.00, 0.00, 0.00, 0
180462, -37026.02, -53687.70, 0.00, 0.00, 0.00, 0.00, 0.00, 0.00, 0
180463, -37001.90, -53596.89, 0.00, 0.00, 0.00, 0.00, 0.00, 0.00, 0
180464, -36992.74, -53646.46, 0.00, 0.00, 0.00, 0.00, 0.00, 0.00, 0
180465, -37013.93, -53731.27, 0.00, 0.00, 0.00, 0.00, 0.00, 0.00, 0
180466, -37023.25, -53674.72, 0.00, 0.00, 0.00, 0.00, 0.00, 0.00, 0
180467, -37003.33, -53564.59, 0.00, 0.00, 0.00, 0.00, 0.00, 0.00, 0
180468, -36990.68, -53611.53, 0.00, 0.00, 0.00, 0.00, 0.00, 0.00, 0
180469, -37015.32, -53740.16, 0.00, 0.00, 0.00, 0.00, 0.00, 0.00, 0
180470, -37030.71, -53727.31, 0.00, 0.00, 0.00, 0.00, 0.00, 0.00, 0
180471, -37011.20, -53610.30, 0.00, 0.00, 0.00, 0.00, 0.00, 0.00, 0
180472, -36992.29, -53600.93, 0.00, 0.00, 0.00, 0.00, 0.00, 0.00, 0
180473, -37003.56, -53701.29, 0.00, 0.00, 0.00, 0.00, 0.00, 0.00, 0
180474, -37017.64, -53717.88, 0.00, 0.00, 0.00, 0.00, 0.00, 0.00, 0
180475, -37003.69, -53615.11, 0.00, 0.00, 0.00, 0.00, 0.00, 0.00, 0
180476, -36985.96, -53581.55, 0.00, 0.00, 0.00, 0.00, 0.00, 0.00, 0
180477, -36996.74, -53687.75, 0.00, 0.00, 0.00, 0.00, 0.00, 0.00, 0
180478, -37020.19, -53735.00, 0.00, 0.00, 0.00, 0.00, 0.00, 0.00, 0
180479, -37012.63, -53635.71, 0.00, 0.00, 0.00, 0.00, 0.00, 0.00, 0
180480, -36991.82, -53571.14, 0.00, 0.00, 0.00, 0.00, 0.00, 0.00, 0
180481, -36999.98, -53655.81, 0.00, 0.00, 0.00, 0.00, 0.00, 0.00, 0
180482, -37024.08, -53715.64, 0.00, 0.00, 0.00, 0.00, 0.00, 0.00, 0
180483, -37021.51, -53646.55, 0.00, 0.00, 0.00, 0.00, 0.00, 0.00, 0
180484, -37001.84, -53596.55, 0.00, 0.00, 0.00, 0.00, 0.00, 0.00, 0
180485, -37000.43, -53671.83, 0.00, 0.00, 0.00, 0.00, 0.00, 0.00, 0
180486, -37019.36, -53741.30, 0.00, 0.00, 0.00, 0.00, 0.00, 0.00, 0
180487, -37020.95, -53681.94, 0.00, 0.00, 0.00, 0.00, 0.00, 0.00, 0
180488, -36998.06, -53588.51, 0.00, 0.00, 0.00, 0.00, 0.00, 0.00, 0
180489, -36987.91, -53635.98, 0.00, 0.00, 0.00, 0.00, 0.00, 0.00, 0
180490, -37005.59, -53712.92, 0.00, 0.00, 0.00, 0.00, 0.00, 0.00, 0
180491, -37015.98, -53660.55, 0.00, 0.00, 0.00, 0.00, 0.00, 0.00, 0
180492, -37000.20, -53591.39, 0.00, 0.00, 0.00, 0.00, 0.00, 0.00, 0
180493, -36986.79, -53632.72, 0.00, 0.00, 0.00, 0.00, 0.00, 0.00, 0
180494, -37006.24, -53737.44, 0.00, 0.00, 0.00, 0.00, 0.00, 0.00, 0
180495, -37019.20, -53716.09, 0.00, 0.00, 0.00, 0.00, 0.00, 0.00, 0
180496, -37002.11, -53604.49, 0.00, 0.00, 0.00, 0.00, 0.00, 0.00, 0
180497, -36989.61, -53618.52, 0.00, 0.00, 0.00, 0.00, 0.00, 0.00, 0
180498, -37007.20, -53722.28, 0.00, 0.00, 0.00, 0.00, 0.00, 0.00, 0
180499, -37024.19, -53726.57, 0.00, 0.00, 0.00, 0.00, 0.00, 0.00, 0
180500, -37013.17, -53626.32, 0.00, 0.00, 0.00, 0.00, 0.00, 0.00, 0
180501, -36997.54, -53596.71, 0.00, 0.00, 0.00, 0.00, 0.00, 0.00, 0
180502, -37006.26, -53684.55, 0.00, 0.00, 0.00, 0.00, 0.00, 0.00, 0
180503, -37027.86, -53731.18, 0.00, 0.00, 0.00, 0.00, 0.00, 0.00, 0
180504, -37022.55, -53650.73, 0.00, 0.00, 0.00, 0.00, 0.00, 0.00, 0
180505, -36994.80, -53592.26, 0.00, 0.00, 0.00, 0.00, 0.00, 0.00, 0
180506, -36996.25, -53681.87, 0.00, 0.00, 0.00, 0.00, 0.00, 0.00, 0
180507, -37022.85, -53736.83, 0.00, 0.00, 0.00, 0.00, 0.00, 0.00, 0
180508, -37022.54, -53652.16, 0.00, 0.00, 0.00, 0.00, 0.00, 0.00, 0
180509, -36998.98, -53574.71, 0.00, 0.00, 0.00, 0.00, 0.00, 0.00, 0
180510, -36995.73, -53643.16, 0.00, 0.00, 0.00, 0.00, 0.00, 0.00, 0
180511, -37018.45, -53716.94, 0.00, 0.00, 0.00, 0.00, 0.00, 0.00, 0
180512, -37024.88, -53657.66, 0.00, 0.00, 0.00, 0.00, 0.00, 0.00, 0
180513, -37000.70, -53582.98, 0.00, 0.00, 0.00, 0.00, 0.00, 0.00, 0
180514, -36989.54, -53636.94, 0.00, 0.00, 0.00, 0.00, 0.00, 0.00, 0
180515, -37008.65, -53743.07, 0.00, 0.00, 0.00, 0.00, 0.00, 0.00, 0
180516, -37018.31, -53707.30, 0.00, 0.00, 0.00, 0.00, 0.00, 0.00, 0
180517, -36995.20, -53591.23, 0.00, 0.00, 0.00, 0.00, 0.00, 0.00, 0
180518, -36982.34, -53610.37, 0.00, 0.00, 0.00, 0.00, 0.00, 0.00, 0
180519, -37003.09, -53707.42, 0.00, 0.00, 0.00, 0.00, 0.00, 0.00, 0
180520, -37017.08, -53679.03, 0.00, 0.00, 0.00, 0.00, 0.00, 0.00, 0
180521, -37001.39, -53590.63, 0.00, 0.00, 0.00, 0.00, 0.00, 0.00, 0
180522, -36987.35, -53607.04, 0.00, 0.00, 0.00, 0.00, 0.00, 0.00, 0
180523, -37000.59, -53711.84, 0.00, 0.00, 0.00, 0.00, 0.00, 0.00, 0
180524, -37017.04, -53729.21, 0.00, 0.00, 0.00, 0.00, 0.00, 0.00, 0
180525, -37007.80, -53624.34, 0.00, 0.00, 0.00, 0.00, 0.00, 0.00, 0
180526, -36987.00, -53586.90, 0.00, 0.00, 0.00, 0.00, 0.00, 0.00, 0
180527, -36995.09, -53672.23, 0.00, 0.00, 0.00, 0.00, 0.00, 0.00, 0
180528, -37019.83, -53708.87, 0.00, 0.00, 0.00, 0.00, 0.00, 0.00, 0
180529, -37013.95, -53629.37, 0.00, 0.00, 0.00, 0.00, 0.00, 0.00, 0
180530, -36988.43, -53581.98, 0.00, 0.00, 0.00, 0.00, 0.00, 0.00, 0
180531, -36991.82, -53666.13, 0.00, 0.00, 0.00, 0.00, 0.00, 0.00, 0
180532, -37018.71, -53736.86, 0.00, 0.00, 0.00, 0.00, 0.00, 0.00, 0
180533, -37021.30, -53650.87, 0.00, 0.00, 0.00, 0.00, 0.00, 0.00, 0
180534, -36997.70, -53564.77, 0.00, 0.00, 0.00, 0.00, 0.00, 0.00, 0
180535, -36993.23, -53648.25, 0.00, 0.00, 0.00, 0.00, 0.00, 0.00, 0
180536, -37011.96, -53733.37, 0.00, 0.00, 0.00, 0.00, 0.00, 0.00, 0
180537, -37020.37, -53674.81, 0.00, 0.00, 0.00, 0.00, 0.00, 0.00, 0
180538, -37003.58, -53581.49, 0.00, 0.00, 0.00, 0.00, 0.00, 0.00, 0
180539, -36990.26, -53614.14, 0.00, 0.00, 0.00, 0.00, 0.00, 0.00, 0
180540, -37014.09, -53727.16, 0.00, 0.00, 0.00, 0.00, 0.00, 0.00, 0
180541, -37026.47, -53709.95, 0.00, 0.00, 0.00, 0.00, 0.00, 0.00, 0
180542, -37005.64, -53593.38, 0.00, 0.00, 0.00, 0.00, 0.00, 0.00, 0
180543, -36994.33, -53591.19, 0.00, 0.00, 0.00, 0.00, 0.00, 0.00, 0
180544, -37011.29, -53697.98, 0.00, 0.00, 0.00, 0.00, 0.00, 0.00, 0
180545, -37026.09, -53708.78, 0.00, 0.00, 0.00, 0.00, 0.00, 0.00, 0
180546, -37007.38, -53583.01, 0.00, 0.00, 0.00, 0.00, 0.00, 0.00, 0
180547, -36992.56, -53565.48, 0.00, 0.00, 0.00, 0.00, 0.00, 0.00, 0
180548, -37005.28, -53691.13, 0.00, 0.00, 0.00, 0.00, 0.00, 0.00, 0
180549, -37025.57, -53716.29, 0.00, 0.00, 0.00, 0.00, 0.00, 0.00, 0
180550, -37018.55, -53614.79, 0.00, 0.00, 0.00, 0.00, 0.00, 0.00, 0
180551, -37004.38, -53581.69, 0.00, 0.00, 0.00, 0.00, 0.00, 0.00, 0
180552, -37014.31, -53677.82, 0.00, 0.00, 0.00, 0.00, 0.00, 0.00, 0
180553, -37024.48, -53712.83, 0.00, 0.00, 0.00, 0.00, 0.00, 0.00, 0
180554, -37005.86, -53626.84, 0.00, 0.00, 0.00, 0.00, 0.00, 0.00, 0
180555, -36977.96, -53559.32, 0.00, 0.00, 0.00, 0.00, 0.00, 0.00, 0
180556, -36973.58, -53648.07, 0.00, 0.00, 0.00, 0.00, 0.00, 0.00, 0
180557, -36995.31, -53730.71, 0.00, 0.00, 0.00, 0.00, 0.00, 0.00, 0
180558, -36988.58, -53649.91, 0.00, 0.00, 0.00, 0.00, 0.00, 0.00, 0
180559, -36965.27, -53562.15, 0.00, 0.00, 0.00, 0.00, 0.00, 0.00, 0
180560, -36955.39, -53635.04, 0.00, 0.00, 0.00, 0.00, 0.00, 0.00, 0
180561, -36975.55, -53722.41, 0.00, 0.00, 0.00, 0.00, 0.00, 0.00, 0
180562, -36982.97, -53653.55, 0.00, 0.00, 0.00, 0.00, 0.00, 0.00, 0
180563, -36955.61, -53539.13, 0.00, 0.00, 0.00, 0.00, 0.00, 0.00, 0
180564, -36947.19, -53586.00, 0.00, 0.00, 0.00, 0.00, 0.00, 0.00, 0
180565, -36974.10, -53703.62, 0.00, 0.00, 0.00, 0.00, 0.00, 0.00, 0
180566, -36988.05, -53690.83, 0.00, 0.00, 0.00, 0.00, 0.00, 0.00, 0
180567, -36969.36, -53589.25, 0.00, 0.00, 0.00, 0.00, 0.00, 0.00, 0
180568, -36955.08, -53603.37, 0.00, 0.00, 0.00, 0.00, 0.00, 0.00, 0
180569, -36972.00, -53713.27, 0.00, 0.00, 0.00, 0.00, 0.00, 0.00, 0
180570, -36991.96, -53704.18, 0.00, 0.00, 0.00, 0.00, 0.00, 0.00, 0
180571, -36978.61, -53583.70, 0.00, 0.00, 0.00, 0.00, 0.00, 0.00, 0
180572, -36959.32, -53564.77, 0.00, 0.00, 0.00, 0.00, 0.00, 0.00, 0
180573, -36970.34, -53664.82, 0.00, 0.00, 0.00, 0.00, 0.00, 0.00, 0
180574, -36990.68, -53670.65, 0.00, 0.00, 0.00, 0.00, 0.00, 0.00, 0
180575, -36980.25, -53564.43, 0.00, 0.00, 0.00, 0.00, 0.00, 0.00, 0
180576, -36958.99, -53551.85, 0.00, 0.00, 0.00, 0.00, 0.00, 0.00, 0
180577, -36963.13, -53665.57, 0.00, 0.00, 0.00, 0.00, 0.00, 0.00, 0
180578, -36989.92, -53713.86, 0.00, 0.00, 0.00, 0.00, 0.00, 0.00, 0
180579, -36989.59, -53608.06, 0.00, 0.00, 0.00, 0.00, 0.00, 0.00, 0
180580, -36966.32, -53529.83, 0.00, 0.00, 0.00, 0.00, 0.00, 0.00, 0
180581, -36969.07, -53635.13, 0.00, 0.00, 0.00, 0.00, 0.00, 0.00, 0
180582, -36994.97, -53721.12, 0.00, 0.00, 0.00, 0.00, 0.00, 0.00, 0
180583, -36998.28, -53638.62, 0.00, 0.00, 0.00, 0.00, 0.00, 0.00, 0
180584, -36977.20, -53546.91, 0.00, 0.00, 0.00, 0.00, 0.00, 0.00, 0
180585, -36969.72, -53616.89, 0.00, 0.00, 0.00, 0.00, 0.00, 0.00, 0
180586, -36989.03, -53717.43, 0.00, 0.00, 0.00, 0.00, 0.00, 0.00, 0
180587, -36994.24, -53657.46, 0.00, 0.00, 0.00, 0.00, 0.00, 0.00, 0
180588, -36970.63, -53538.73, 0.00, 0.00, 0.00, 0.00, 0.00, 0.00, 0
180589, -36956.35, -53593.04, 0.00, 0.00, 0.00, 0.00, 0.00, 0.00, 0
180590, -36976.20, -53723.78, 0.00, 0.00, 0.00, 0.00, 0.00, 0.00, 0
180591, -36988.94, -53694.43, 0.00, 0.00, 0.00, 0.00, 0.00, 0.00, 0
180592, -36970.30, -53575.32, 0.00, 0.00, 0.00, 0.00, 0.00, 0.00, 0
180593, -36956.08, -53574.96, 0.00, 0.00, 0.00, 0.00, 0.00, 0.00, 0
180594, -36972.96, -53680.11, 0.00, 0.00, 0.00, 0.00, 0.00, 0.00, 0
180595, -36993.90, -53692.51, 0.00, 0.00, 0.00, 0.00, 0.00, 0.00, 0
180596, -36981.96, -53582.20, 0.00, 0.00, 0.00, 0.00, 0.00, 0.00, 0
180597, -36960.84, -53558.58, 0.00, 0.00, 0.00, 0.00, 0.00, 0.00, 0
180598, -36969.47, -53676.08, 0.00, 0.00, 0.00, 0.00, 0.00, 0.00, 0
180599, -36990.39, -53718.37, 0.00, 0.00, 0.00, 0.00, 0.00, 0.00, 0
180600, -36978.93, -53607.75, 0.00, 0.00, 0.00, 0.00, 0.00, 0.00, 0
180601, -36949.15, -53548.56, 0.00, 0.00, 0.00, 0.00, 0.00, 0.00, 0
180602, -36952.11, -53647.02, 0.00, 0.00, 0.00, 0.00, 0.00, 0.00, 0
180603, -36977.68, -53702.68, 0.00, 0.00, 0.00, 0.00, 0.00, 0.00, 0
180604, -36977.81, -53618.68, 0.00, 0.00, 0.00, 0.00, 0.00, 0.00, 0
180605, -36955.25, -53557.17, 0.00, 0.00, 0.00, 0.00, 0.00, 0.00, 0
180606, -36955.01, -53630.15, 0.00, 0.00, 0.00, 0.00, 0.00, 0.00, 0
180607, -36980.42, -53704.33, 0.00, 0.00, 0.00, 0.00, 0.00, 0.00, 0
180608, -36980.27, -53636.47, 0.00, 0.00, 0.00, 0.00, 0.00, 0.00, 0
180609, -36956.11, -53552.77, 0.00, 0.00, 0.00, 0.00, 0.00, 0.00, 0
180610, -36944.66, -53610.03, 0.00, 0.00, 0.00, 0.00, 0.00, 0.00, 0
180611, -36967.64, -53703.30, 0.00, 0.00, 0.00, 0.00, 0.00, 0.00, 0
180612, -36982.28, -53660.86, 0.00, 0.00, 0.00, 0.00, 0.00, 0.00, 0
180613, -36962.23, -53557.26, 0.00, 0.00, 0.00, 0.00, 0.00, 0.00, 0
180614, -36950.25, -53586.79, 0.00, 0.00, 0.00, 0.00, 0.00, 0.00, 0
180615, -36970.88, -53687.23, 0.00, 0.00, 0.00, 0.00, 0.00, 0.00, 0
180616, -36986.73, -53667.34, 0.00, 0.00, 0.00, 0.00, 0.00, 0.00, 0
180617, -36971.93, -53558.76, 0.00, 0.00, 0.00, 0.00, 0.00, 0.00, 0
180618, -36955.68, -53570.96, 0.00, 0.00, 0.00, 0.00, 0.00, 0.00, 0
180619, -36966.07, -53678.54, 0.00, 0.00, 0.00, 0.00, 0.00, 0.00, 0
180620, -36981.81, -53684.57, 0.00, 0.00, 0.00, 0.00, 0.00, 0.00, 0
180621, -36971.21, -53584.62, 0.00, 0.00, 0.00, 0.00, 0.00, 0.00, 0
180622, -36951.75, -53557.19, 0.00, 0.00, 0.00, 0.00, 0.00, 0.00, 0
180623, -36961.52, -53664.61, 0.00, 0.00, 0.00, 0.00, 0.00, 0.00, 0
180624, -36982.55, -53704.89, 0.00, 0.00, 0.00, 0.00, 0.00, 0.00, 0
180625, -36972.96, -53595.23, 0.00, 0.00, 0.00, 0.00, 0.00, 0.00, 0
180626, -36958.34, -53528.78, 0.00, 0.00, 0.00, 0.00, 0.00, 0.00, 0
180627, -36964.78, -53619.08, 0.00, 0.00, 0.00, 0.00, 0.00, 0.00, 0
180628, -36981.79, -53685.47, 0.00, 0.00, 0.00, 0.00, 0.00, 0.00, 0
180629, -36987.57, -53605.81, 0.00, 0.00, 0.00, 0.00, 0.00, 0.00, 0
180630, -36971.30, -53529.52, 0.00, 0.00, 0.00, 0.00, 0.00, 0.00, 0
180631, -36972.29, -53627.29, 0.00, 0.00, 0.00, 0.00, 0.00, 0.00, 0
180632, -36997.50, -53712.63, 0.00, 0.00, 0.00, 0.00, 0.00, 0.00, 0
180633, -36997.70, -53650.13, 0.00, 0.00, 0.00, 0.00, 0.00, 0.00, 0
180634, -36976.02, -53556.72, 0.00, 0.00, 0.00, 0.00, 0.00, 0.00, 0
180635, -36966.90, -53601.85, 0.00, 0.00, 0.00, 0.00, 0.00, 0.00, 0
180636, -36988.94, -53689.00, 0.00, 0.00, 0.00, 0.00, 0.00, 0.00, 0
180637, -37002.21, -53661.26, 0.00, 0.00, 0.00, 0.00, 0.00, 0.00, 0
180638, -36984.78, -53580.44, 0.00, 0.00, 0.00, 0.00, 0.00, 0.00, 0
180639, -36968.51, -53596.96, 0.00, 0.00, 0.00, 0.00, 0.00, 0.00, 0
180640, -36983.60, -53702.25, 0.00, 0.00, 0.00, 0.00, 0.00, 0.00, 0
180641, -36999.09, -53690.34, 0.00, 0.00, 0.00, 0.00, 0.00, 0.00, 0
180642, -36983.78, -53580.41, 0.00, 0.00, 0.00, 0.00, 0.00, 0.00, 0
180643, -36964.42, -53571.68, 0.00, 0.00, 0.00, 0.00, 0.00, 0.00, 0
180644, -36976.78, -53671.59, 0.00, 0.00, 0.00, 0.00, 0.00, 0.00, 0
180645, -36994.80, -53681.56, 0.00, 0.00, 0.00, 0.00, 0.00, 0.00, 0
180646, -36982.79, -53566.38, 0.00, 0.00, 0.00, 0.00, 0.00, 0.00, 0
180647, -36965.07, -53528.80, 0.00, 0.00, 0.00, 0.00, 0.00, 0.00, 0
180648, -36973.27, -53650.98, 0.00, 0.00, 0.00, 0.00, 0.00, 0.00, 0
180649, -36995.00, -53704.40, 0.00, 0.00, 0.00, 0.00, 0.00, 0.00, 0
180650, -36994.80, -53589.47, 0.00, 0.00, 0.00, 0.00, 0.00, 0.00, 0
180651, -36982.84, -53515.77, 0.00, 0.00, 0.00, 0.00, 0.00, 0.00, 0
180652, -36970.99, -53611.42, 0.00, 0.00, 0.00, 0.00, 0.00, 0.00, 0
180653, -36975.73, -53694.81, 0.00, 0.00, 0.00, 0.00, 0.00, 0.00, 0
180654, -36971.59, -53605.49, 0.00, 0.00, 0.00, 0.00, 0.00, 0.00, 0
180655, -36944.19, -53514.23, 0.00, 0.00, 0.00, 0.00, 0.00, 0.00, 0
180656, -36934.25, -53593.83, 0.00, 0.00, 0.00, 0.00, 0.00, 0.00, 0
180657, -36951.50, -53695.28, 0.00, 0.00, 0.00, 0.00, 0.00, 0.00, 0
180658, -36951.16, -53634.98, 0.00, 0.00, 0.00, 0.00, 0.00, 0.00, 0
180659, -36921.26, -53531.55, 0.00, 0.00, 0.00, 0.00, 0.00, 0.00, 0
180660, -36899.84, -53576.30, 0.00, 0.00, 0.00, 0.00, 0.00, 0.00, 0
180661, -36920.23, -53680.73, 0.00, 0.00, 0.00, 0.00, 0.00, 0.00, 0
180662, -36939.52, -53653.37, 0.00, 0.00, 0.00, 0.00, 0.00, 0.00, 0
180663, -36924.86, -53540.79, 0.00, 0.00, 0.00, 0.00, 0.00, 0.00, 0
180664, -36909.75, -53550.00, 0.00, 0.00, 0.00, 0.00, 0.00, 0.00, 0
180665, -36926.85, -53661.48, 0.00, 0.00, 0.00, 0.00, 0.00, 0.00, 0
180666, -36942.65, -53661.20, 0.00, 0.00, 0.00, 0.00, 0.00, 0.00, 0
180667, -36926.04, -53542.66, 0.00, 0.00, 0.00, 0.00, 0.00, 0.00, 0
180668, -36909.99, -53528.98, 0.00, 0.00, 0.00, 0.00, 0.00, 0.00, 0
180669, -36924.30, -53639.02, 0.00, 0.00, 0.00, 0.00, 0.00, 0.00, 0
180670, -36942.09, -53660.77, 0.00, 0.00, 0.00, 0.00, 0.00, 0.00, 0
180671, -36935.61, -53561.17, 0.00, 0.00, 0.00, 0.00, 0.00, 0.00, 0
180672, -36918.33, -53529.52, 0.00, 0.00, 0.00, 0.00, 0.00, 0.00, 0
180673, -36925.44, -53625.63, 0.00, 0.00, 0.00, 0.00, 0.00, 0.00, 0
180674, -36949.27, -53665.38, 0.00, 0.00, 0.00, 0.00, 0.00, 0.00, 0
180675, -36947.23, -53566.89, 0.00, 0.00, 0.00, 0.00, 0.00, 0.00, 0
180676, -36928.57, -53510.88, 0.00, 0.00, 0.00, 0.00, 0.00, 0.00, 0
180677, -36931.45, -53613.70, 0.00, 0.00, 0.00, 0.00, 0.00, 0.00, 0
180678, -36954.00, -53678.18, 0.00, 0.00, 0.00, 0.00, 0.00, 0.00, 0
180679, -36953.82, -53579.12, 0.00, 0.00, 0.00, 0.00, 0.00, 0.00, 0
180680, -36930.42, -53481.55, 0.00, 0.00, 0.00, 0.00, 0.00, 0.00, 0
180681, -36925.15, -53548.43, 0.00, 0.00, 0.00, 0.00, 0.00, 0.00, 0
180682, -36946.79, -53644.48, 0.00, 0.00, 0.00, 0.00, 0.00, 0.00, 0
180683, -36955.28, -53611.93, 0.00, 0.00, 0.00, 0.00, 0.00, 0.00, 0
180684, -36936.79, -53514.68, 0.00, 0.00, 0.00, 0.00, 0.00, 0.00, 0
180685, -36924.21, -53551.63, 0.00, 0.00, 0.00, 0.00, 0.00, 0.00, 0
180686, -36944.50, -53665.13, 0.00, 0.00, 0.00, 0.00, 0.00, 0.00, 0
180687, -36959.75, -53643.54, 0.00, 0.00, 0.00, 0.00, 0.00, 0.00, 0
180688, -36946.14, -53535.38, 0.00, 0.00, 0.00, 0.00, 0.00, 0.00, 0
180689, -36935.86, -53544.92, 0.00, 0.00, 0.00, 0.00, 0.00, 0.00, 0
180690, -36951.61, -53657.51, 0.00, 0.00, 0.00, 0.00, 0.00, 0.00, 0
180691, -36965.96, -53661.21, 0.00, 0.00, 0.00, 0.00, 0.00, 0.00, 0
180692, -36950.38, -53550.31, 0.00, 0.00, 0.00, 0.00, 0.00, 0.00, 0
180693, -36930.56, -53535.46, 0.00, 0.00, 0.00, 0.00, 0.00, 0.00, 0
180694, -36942.49, -53637.79, 0.00, 0.00, 0.00, 0.00, 0.00, 0.00, 0
180695, -36960.64, -53650.76, 0.00, 0.00, 0.00, 0.00, 0.00, 0.00, 0
180696, -36947.84, -53528.67, 0.00, 0.00, 0.00, 0.00, 0.00, 0.00, 0
180697, -36921.68, -53492.57, 0.00, 0.00, 0.00, 0.00, 0.00, 0.00, 0
180698, -36928.16, -53620.52, 0.00, 0.00, 0.00, 0.00, 0.00, 0.00, 0
180699, -36952.02, -53688.53, 0.00, 0.00, 0.00, 0.00, 0.00, 0.00, 0
180700, -36949.15, -53588.53, 0.00, 0.00, 0.00, 0.00, 0.00, 0.00, 0
180701, -36931.68, -53517.18, 0.00, 0.00, 0.00, 0.00, 0.00, 0.00, 0
180702, -36929.59, -53604.49, 0.00, 0.00, 0.00, 0.00, 0.00, 0.00, 0
180703, -36950.29, -53688.98, 0.00, 0.00, 0.00, 0.00, 0.00, 0.00, 0
180704, -36949.18, -53602.16, 0.00, 0.00, 0.00, 0.00, 0.00, 0.00, 0
180705, -36926.60, -53518.59, 0.00, 0.00, 0.00, 0.00, 0.00, 0.00, 0
180706, -36922.00, -53592.22, 0.00, 0.00, 0.00, 0.00, 0.00, 0.00, 0
180707, -36945.64, -53685.80, 0.00, 0.00, 0.00, 0.00, 0.00, 0.00, 0
180708, -36958.52, -53627.87, 0.00, 0.00, 0.00, 0.00, 0.00, 0.00, 0
180709, -36935.90, -53513.47, 0.00, 0.00, 0.00, 0.00, 0.00, 0.00, 0
180710, -36922.89, -53548.00, 0.00, 0.00, 0.00, 0.00, 0.00, 0.00, 0
180711, -36943.59, -53651.74, 0.00, 0.00, 0.00, 0.00, 0.00, 0.00, 0
180712, -36962.23, -53634.30, 0.00, 0.00, 0.00, 0.00, 0.00, 0.00, 0
180713, -36948.64, -53527.75, 0.00, 0.00, 0.00, 0.00, 0.00, 0.00, 0
180714, -36933.77, -53544.99, 0.00, 0.00, 0.00, 0.00, 0.00, 0.00, 0
180715, -36946.45, -53663.77, 0.00, 0.00, 0.00, 0.00, 0.00, 0.00, 0
180716, -36961.29, -53656.61, 0.00, 0.00, 0.00, 0.00, 0.00, 0.00, 0
180717, -36947.28, -53519.26, 0.00, 0.00, 0.00, 0.00, 0.00, 0.00, 0
180718, -36925.10, -53505.18, 0.00, 0.00, 0.00, 0.00, 0.00, 0.00, 0
180719, -36933.71, -53632.94, 0.00, 0.00, 0.00, 0.00, 0.00, 0.00, 0
180720, -36955.86, -53675.88, 0.00, 0.00, 0.00, 0.00, 0.00, 0.00, 0
180721, -36949.20, -53574.54, 0.00, 0.00, 0.00, 0.00, 0.00, 0.00, 0
180722, -36928.41, -53525.41, 0.00, 0.00, 0.00, 0.00, 0.00, 0.00, 0
180723, -36935.12, -53624.16, 0.00, 0.00, 0.00, 0.00, 0.00, 0.00, 0
180724, -36962.05, -53686.36, 0.00, 0.00, 0.00, 0.00, 0.00, 0.00, 0
180725, -36961.78, -53594.83, 0.00, 0.00, 0.00, 0.00, 0.00, 0.00, 0
180726, -36936.01, -53502.56, 0.00, 0.00, 0.00, 0.00, 0.00, 0.00, 0
180727, -36931.14, -53585.22, 0.00, 0.00, 0.00, 0.00, 0.00, 0.00, 0
180728, -36954.99, -53672.10, 0.00, 0.00, 0.00, 0.00, 0.00, 0.00, 0
180729, -36962.74, -53609.50, 0.00, 0.00, 0.00, 0.00, 0.00, 0.00, 0
180730, -36940.82, -53522.97, 0.00, 0.00, 0.00, 0.00, 0.00, 0.00, 0
180731, -36931.03, -53582.29, 0.00, 0.00, 0.00, 0.00, 0.00, 0.00, 0
180732, -36953.29, -53678.18, 0.00, 0.00, 0.00, 0.00, 0.00, 0.00, 0
180733, -36962.65, -53621.97, 0.00, 0.00, 0.00, 0.00, 0.00, 0.00, 0
180734, -36946.52, -53506.12, 0.00, 0.00, 0.00, 0.00, 0.00, 0.00, 0
180735, -36939.95, -53538.62, 0.00, 0.00, 0.00, 0.00, 0.00, 0.00, 0
180736, -36953.54, -53649.97, 0.00, 0.00, 0.00, 0.00, 0.00, 0.00, 0
180737, -36955.41, -53627.31, 0.00, 0.00, 0.00, 0.00, 0.00, 0.00, 0
180738, -36938.47, -53515.89, 0.00, 0.00, 0.00, 0.00, 0.00, 0.00, 0
180739, -36919.87, -53527.55, 0.00, 0.00, 0.00, 0.00, 0.00, 0.00, 0
180740, -36927.36, -53640.50, 0.00, 0.00, 0.00, 0.00, 0.00, 0.00, 0
180741, -36945.15, -53622.64, 0.00, 0.00, 0.00, 0.00, 0.00, 0.00, 0
180742, -36936.01, -53515.19, 0.00, 0.00, 0.00, 0.00, 0.00, 0.00, 0
180743, -36915.96, -53523.02, 0.00, 0.00, 0.00, 0.00, 0.00, 0.00, 0
180744, -36922.73, -53640.36, 0.00, 0.00, 0.00, 0.00, 0.00, 0.00, 0
180745, -36941.40, -53669.13, 0.00, 0.00, 0.00, 0.00, 0.00, 0.00, 0
180746, -36937.57, -53567.68, 0.00, 0.00, 0.00, 0.00, 0.00, 0.00, 0
180747, -36916.68, -53521.81, 0.00, 0.00, 0.00, 0.00, 0.00, 0.00, 0
180748, -36918.62, -53617.05, 0.00, 0.00, 0.00, 0.00, 0.00, 0.00, 0
180749, -36942.89, -53675.86, 0.00, 0.00, 0.00, 0.00, 0.00, 0.00, 0
180750, -36945.67, -53581.58, 0.00, 0.00, 0.00, 0.00, 0.00, 0.00, 0
180751, -36924.72, -53496.15, 0.00, 0.00, 0.00, 0.00, 0.00, 0.00, 0
180752, -36921.28, -53581.06, 0.00, 0.00, 0.00, 0.00, 0.00, 0.00, 0
180753, -36943.54, -53665.24, 0.00, 0.00, 0.00, 0.00, 0.00, 0.00, 0
180754, -36950.98, -53596.33, 0.00, 0.00, 0.00, 0.00, 0.00, 0.00, 0
180755, -36931.32, -53503.68, 0.00, 0.00, 0.00, 0.00, 0.00, 0.00, 0
180756, -36919.89, -53558.71, 0.00, 0.00, 0.00, 0.00, 0.00, 0.00, 0
180757, -36936.55, -53656.50, 0.00, 0.00, 0.00, 0.00, 0.00, 0.00, 0
180758, -36945.11, -53607.02, 0.00, 0.00, 0.00, 0.00, 0.00, 0.00, 0
180759, -36928.39, -53490.85, 0.00, 0.00, 0.00, 0.00, 0.00, 0.00, 0
180760, -36911.40, -53518.55, 0.00, 0.00, 0.00, 0.00, 0.00, 0.00, 0
180761, -36927.41, -53629.68, 0.00, 0.00, 0.00, 0.00, 0.00, 0.00, 0
180762, -36945.44, -53626.10, 0.00, 0.00, 0.00, 0.00, 0.00, 0.00, 0
180763, -36931.99, -53508.02, 0.00, 0.00, 0.00, 0.00, 0.00, 0.00, 0
180764, -36912.96, -53500.26, 0.00, 0.00, 0.00, 0.00, 0.00, 0.00, 0
180765, -36930.38, -53622.08, 0.00, 0.00, 0.00, 0.00, 0.00, 0.00, 0
180766, -36952.51, -53644.54, 0.00, 0.00, 0.00, 0.00, 0.00, 0.00, 0
180767, -36941.60, -53551.89, 0.00, 0.00, 0.00, 0.00, 0.00, 0.00, 0
180768, -36919.74, -53522.75, 0.00, 0.00, 0.00, 0.00, 0.00, 0.00, 0
180769, -36926.22, -53633.32, 0.00, 0.00, 0.00, 0.00, 0.00, 0.00, 0
180770, -36945.46, -53682.09, 0.00, 0.00, 0.00, 0.00, 0.00, 0.00, 0
180771, -36938.16, -53576.48, 0.00, 0.00, 0.00, 0.00, 0.00, 0.00, 0
180772, -36916.41, -53508.71, 0.00, 0.00, 0.00, 0.00, 0.00, 0.00, 0
180773, -36921.01, -53602.84, 0.00, 0.00, 0.00, 0.00, 0.00, 0.00, 0
180774, -36945.13, -53668.61, 0.00, 0.00, 0.00, 0.00, 0.00, 0.00, 0
180775, -36943.83, -53584.98, 0.00, 0.00, 0.00, 0.00, 0.00, 0.00, 0
180776, -36917.95, -53512.80, 0.00, 0.00, 0.00, 0.00, 0.00, 0.00, 0
180777, -36912.09, -53588.66, 0.00, 0.00, 0.00, 0.00, 0.00, 0.00, 0
180778, -36930.58, -53663.88, 0.00, 0.00, 0.00, 0.00, 0.00, 0.00, 0
180779, -36934.49, -53591.97, 0.00, 0.00, 0.00, 0.00, 0.00, 0.00, 0
180780, -36914.48, -53507.75, 0.00, 0.00, 0.00, 0.00, 0.00, 0.00, 0
180781, -36907.85, -53569.69, 0.00, 0.00, 0.00, 0.00, 0.00, 0.00, 0
180782, -36928.86, -53667.57, 0.00, 0.00, 0.00, 0.00, 0.00, 0.00, 0
180783, -36939.43, -53632.23, 0.00, 0.00, 0.00, 0.00, 0.00, 0.00, 0
180784, -36919.78, -53529.43, 0.00, 0.00, 0.00, 0.00, 0.00, 0.00, 0
180785, -36904.96, -53552.88, 0.00, 0.00, 0.00, 0.00, 0.00, 0.00, 0
180786, -36922.91, -53656.43, 0.00, 0.00, 0.00, 0.00, 0.00, 0.00, 0
180787, -36935.05, -53638.35, 0.00, 0.00, 0.00, 0.00, 0.00, 0.00, 0
180788, -36916.50, -53517.96, 0.00, 0.00, 0.00, 0.00, 0.00, 0.00, 0
180789, -36899.98, -53508.89, 0.00, 0.00, 0.00, 0.00, 0.00, 0.00, 0
180790, -36916.41, -53619.60, 0.00, 0.00, 0.00, 0.00, 0.00, 0.00, 0
180791, -36939.56, -53648.10, 0.00, 0.00, 0.00, 0.00, 0.00, 0.00, 0
180792, -36927.56, -53534.97, 0.00, 0.00, 0.00, 0.00, 0.00, 0.00, 0
180793, -36905.84, -53496.30, 0.00, 0.00, 0.00, 0.00, 0.00, 0.00, 0
180794, -36914.39, -53611.57, 0.00, 0.00, 0.00, 0.00, 0.00, 0.00, 0
180795, -36933.11, -53665.73, 0.00, 0.00, 0.00, 0.00, 0.00, 0.00, 0
180796, -36929.71, -53571.18, 0.00, 0.00, 0.00, 0.00, 0.00, 0.00, 0
180797, -36910.82, -53507.64, 0.00, 0.00, 0.00, 0.00, 0.00, 0.00, 0
180798, -36911.58, -53591.37, 0.00, 0.00, 0.00, 0.00, 0.00, 0.00, 0
180799, -36939.48, -53653.06, 0.00, 0.00, 0.00, 0.00, 0.00, 0.00, 0
180800, -36948.15, -53573.82, 0.00, 0.00, 0.00, 0.00, 0.00, 0.00, 0
180801, -36922.36, -53493.69, 0.00, 0.00, 0.00, 0.00, 0.00, 0.00, 0
180802, -36902.98, -53573.13, 0.00, 0.00, 0.00, 0.00, 0.00, 0.00, 0
180803, -36918.57, -53674.02, 0.00, 0.00, 0.00, 0.00, 0.00, 0.00, 0
180804, -36925.64, -53605.72, 0.00, 0.00, 0.00, 0.00, 0.00, 0.00, 0
180805, -36909.30, -53493.58, 0.00, 0.00, 0.00, 0.00, 0.00, 0.00, 0
180806, -36900.63, -53536.02, 0.00, 0.00, 0.00, 0.00, 0.00, 0.00, 0
180807, -36921.41, -53638.91, 0.00, 0.00, 0.00, 0.00, 0.00, 0.00, 0
180808, -36931.70, -53605.81, 0.00, 0.00, 0.00, 0.00, 0.00, 0.00, 0
180809, -36913.43, -53506.12, 0.00, 0.00, 0.00, 0.00, 0.00, 0.00, 0
180810, -36897.10, -53526.66, 0.00, 0.00, 0.00, 0.00, 0.00, 0.00, 0
180811, -36909.59, -53628.29, 0.00, 0.00, 0.00, 0.00, 0.00, 0.00, 0
180812, -36924.39, -53645.08, 0.00, 0.00, 0.00, 0.00, 0.00, 0.00, 0
180813, -36908.56, -53546.82, 0.00, 0.00, 0.00, 0.00, 0.00, 0.00, 0
180814, -36890.59, -53519.93, 0.00, 0.00, 0.00, 0.00, 0.00, 0.00, 0
180815, -36907.31, -53621.54, 0.00, 0.00, 0.00, 0.00, 0.00, 0.00, 0
180816, -36928.57, -53641.52, 0.00, 0.00, 0.00, 0.00, 0.00, 0.00, 0
180817, -36916.36, -53521.61, 0.00, 0.00, 0.00, 0.00, 0.00, 0.00, 0
180818, -36892.67, -53467.58, 0.00, 0.00, 0.00, 0.00, 0.00, 0.00, 0
180819, -36896.61, -53561.30, 0.00, 0.00, 0.00, 0.00, 0.00, 0.00, 0
180820, -36919.47, -53616.43, 0.00, 0.00, 0.00, 0.00, 0.00, 0.00, 0
180821, -36919.65, -53546.91, 0.00, 0.00, 0.00, 0.00, 0.00, 0.00, 0
180822, -36897.97, -53488.48, 0.00, 0.00, 0.00, 0.00, 0.00, 0.00, 0
180823, -36898.77, -53574.00, 0.00, 0.00, 0.00, 0.00, 0.00, 0.00, 0
180824, -36924.97, -53635.51, 0.00, 0.00, 0.00, 0.00, 0.00, 0.00, 0
180825, -36930.29, -53558.33, 0.00, 0.00, 0.00, 0.00, 0.00, 0.00, 0
180826, -36910.86, -53482.85, 0.00, 0.00, 0.00, 0.00, 0.00, 0.00, 0
180827, -36909.64, -53551.74, 0.00, 0.00, 0.00, 0.00, 0.00, 0.00, 0
180828, -36935.00, -53645.62, 0.00, 0.00, 0.00, 0.00, 0.00, 0.00, 0
180829, -36941.44, -53594.83, 0.00, 0.00, 0.00, 0.00, 0.00, 0.00, 0
180830, -36918.46, -53491.30, 0.00, 0.00, 0.00, 0.00, 0.00, 0.00, 0
180831, -36904.43, -53532.94, 0.00, 0.00, 0.00, 0.00, 0.00, 0.00, 0
180832, -36925.89, -53651.58, 0.00, 0.00, 0.00, 0.00, 0.00, 0.00, 0
180833, -36938.85, -53627.89, 0.00, 0.00, 0.00, 0.00, 0.00, 0.00, 0
180834, -36916.39, -53509.79, 0.00, 0.00, 0.00, 0.00, 0.00, 0.00, 0
180835, -36897.27, -53513.56, 0.00, 0.00, 0.00, 0.00, 0.00, 0.00, 0
180836, -36911.94, -53624.23, 0.00, 0.00, 0.00, 0.00, 0.00, 0.00, 0
180837, -36929.37, -53636.12, 0.00, 0.00, 0.00, 0.00, 0.00, 0.00, 0
180838, -36914.08, -53535.31, 0.00, 0.00, 0.00, 0.00, 0.00, 0.00, 0
180839, -36894.32, -53513.81, 0.00, 0.00, 0.00, 0.00, 0.00, 0.00, 0
180840, -36904.25, -53611.46, 0.00, 0.00, 0.00, 0.00, 0.00, 0.00, 0
180841, -36922.64, -53631.45, 0.00, 0.00, 0.00, 0.00, 0.00, 0.00, 0
180842, -36921.93, -53540.96, 0.00, 0.00, 0.00, 0.00, 0.00, 0.00, 0
180843, -36904.16, -53503.12, 0.00, 0.00, 0.00, 0.00, 0.00, 0.00, 0
180844, -36912.96, -53598.86, 0.00, 0.00, 0.00, 0.00, 0.00, 0.00, 0
180845, -36935.56, -53651.65, 0.00, 0.00, 0.00, 0.00, 0.00, 0.00, 0
180846, -36929.95, -53551.67, 0.00, 0.00, 0.00, 0.00, 0.00, 0.00, 0
180847, -36904.36, -53463.38, 0.00, 0.00, 0.00, 0.00, 0.00, 0.00, 0
180848, -36899.06, -53539.51, 0.00, 0.00, 0.00, 0.00, 0.00, 0.00, 0
180849, -36922.27, -53643.13, 0.00, 0.00, 0.00, 0.00, 0.00, 0.00, 0
180850, -36924.10, -53567.00, 0.00, 0.00, 0.00, 0.00, 0.00, 0.00, 0
180851, -36897.61, -53468.59, 0.00, 0.00, 0.00, 0.00, 0.00, 0.00, 0
180852, -36890.08, -53544.56, 0.00, 0.00, 0.00, 0.00, 0.00, 0.00, 0
180853, -36917.19, -53655.41, 0.00, 0.00, 0.00, 0.00, 0.00, 0.00, 0
180854, -36924.79, -53592.86, 0.00, 0.00, 0.00, 0.00, 0.00, 0.00, 0
180855, -36903.00, -53480.70, 0.00, 0.00, 0.00, 0.00, 0.00, 0.00, 0
180856, -36894.57, -53530.88, 0.00, 0.00, 0.00, 0.00, 0.00, 0.00, 0
180857, -36917.66, -53643.00, 0.00, 0.00, 0.00, 0.00, 0.00, 0.00, 0
180858, -36929.89, -53612.36, 0.00, 0.00, 0.00, 0.00, 0.00, 0.00, 0
180859, -36910.04, -53494.65, 0.00, 0.00, 0.00, 0.00, 0.00, 0.00, 0
180860, -36890.08, -53506.61, 0.00, 0.00, 0.00, 0.00, 0.00, 0.00, 0
180861, -36905.77, -53621.43, 0.00, 0.00, 0.00, 0.00, 0.00, 0.00, 0
180862, -36923.38, -53626.37, 0.00, 0.00, 0.00, 0.00, 0.00, 0.00, 0
180863, -36909.34, -53514.03, 0.00, 0.00, 0.00, 0.00, 0.00, 0.00, 0
180864, -36889.72, -53485.67, 0.00, 0.00, 0.00, 0.00, 0.00, 0.00, 0
180865, -36898.91, -53595.93, 0.00, 0.00, 0.00, 0.00, 0.00, 0.00, 0
180866, -36919.14, -53623.49, 0.00, 0.00, 0.00, 0.00, 0.00, 0.00, 0
180867, -36914.93, -53508.00, 0.00, 0.00, 0.00, 0.00, 0.00, 0.00, 0
180868, -36893.61, -53460.61, 0.00, 0.00, 0.00, 0.00, 0.00, 0.00, 0
180869, -36896.71, -53575.09, 0.00, 0.00, 0.00, 0.00, 0.00, 0.00, 0
180870, -36920.48, -53647.45, 0.00, 0.00, 0.00, 0.00, 0.00, 0.00, 0
180871, -36916.79, -53563.36, 0.00, 0.00, 0.00, 0.00, 0.00, 0.00, 0
180872, -36894.59, -53488.37, 0.00, 0.00, 0.00, 0.00, 0.00, 0.00, 0
180873, -36892.74, -53564.86, 0.00, 0.00, 0.00, 0.00, 0.00, 0.00, 0
180874, -36917.01, -53634.06, 0.00, 0.00, 0.00, 0.00, 0.00, 0.00, 0
180875, -36925.21, -53562.80, 0.00, 0.00, 0.00, 0.00, 0.00, 0.00, 0
180876, -36905.95, -53475.41, 0.00, 0.00, 0.00, 0.00, 0.00, 0.00, 0
180877, -36897.68, -53535.09, 0.00, 0.00, 0.00, 0.00, 0.00, 0.00, 0
180878, -36920.12, -53641.21, 0.00, 0.00, 0.00, 0.00, 0.00, 0.00, 0
180879, -36927.41, -53602.92, 0.00, 0.00, 0.00, 0.00, 0.00, 0.00, 0
180880, -36906.89, -53494.96, 0.00, 0.00, 0.00, 0.00, 0.00, 0.00, 0
180881, -36895.73, -53527.46, 0.00, 0.00, 0.00, 0.00, 0.00, 0.00, 0
180882, -36913.46, -53640.90, 0.00, 0.00, 0.00, 0.00, 0.00, 0.00, 0
180883, -36927.09, -53628.16, 0.00, 0.00, 0.00, 0.00, 0.00, 0.00, 0
180884, -36912.34, -53509.74, 0.00, 0.00, 0.00, 0.00, 0.00, 0.00, 0
180885, -36897.97, -53502.79, 0.00, 0.00, 0.00, 0.00, 0.00, 0.00, 0
180886, -36915.71, -53610.23, 0.00, 0.00, 0.00, 0.00, 0.00, 0.00, 0
180887, -36936.19, -53620.56, 0.00, 0.00, 0.00, 0.00, 0.00, 0.00, 0
180888, -36923.70, -53520.67, 0.00, 0.00, 0.00, 0.00, 0.00, 0.00, 0
180889, -36897.27, -53488.08, 0.00, 0.00, 0.00, 0.00, 0.00, 0.00, 0
180890, -36903.87, -53589.13, 0.00, 0.00, 0.00, 0.00, 0.00, 0.00, 0
180891, -36924.77, -53614.50, 0.00, 0.00, 0.00, 0.00, 0.00, 0.00, 0
180892, -36923.20, -53512.53, 0.00, 0.00, 0.00, 0.00, 0.00, 0.00, 0
180893, -36904.23, -53458.42, 0.00, 0.00, 0.00, 0.00, 0.00, 0.00, 0
180894, -36894.23, -53559.63, 0.00, 0.00, 0.00, 0.00, 0.00, 0.00, 0
180895, -36915.45, -53640.36, 0.00, 0.00, 0.00, 0.00, 0.00, 0.00, 0
180896, -36920.45, -53562.18, 0.00, 0.00, 0.00, 0.00, 0.00, 0.00, 0
180897, -36900.43, -53476.01, 0.00, 0.00, 0.00, 0.00, 0.00, 0.00, 0
180898, -36899.44, -53535.53, 0.00, 0.00, 0.00, 0.00, 0.00, 0.00, 0
180899, -36917.28, -53635.76, 0.00, 0.00, 0.00, 0.00, 0.00, 0.00, 0
180900, -36919.63, -53582.23, 0.00, 0.00, 0.00, 0.00, 0.00, 0.00, 0
180901, -36901.43, -53480.88, 0.00, 0.00, 0.00, 0.00, 0.00, 0.00, 0
180902, -36895.44, -53524.74, 0.00, 0.00, 0.00, 0.00, 0.00, 0.00, 0
180903, -36917.28, -53623.22, 0.00, 0.00, 0.00, 0.00, 0.00, 0.00, 0
180904, -36929.51, -53596.66, 0.00, 0.00, 0.00, 0.00, 0.00, 0.00, 0
180905, -36912.21, -53497.20, 0.00, 0.00, 0.00, 0.00, 0.00, 0.00, 0
180906, -36897.61, -53515.19, 0.00, 0.00, 0.00, 0.00, 0.00, 0.00, 0
180907, -36914.29, -53618.84, 0.00, 0.00, 0.00, 0.00, 0.00, 0.00, 0
180908, -36924.93, -53599.53, 0.00, 0.00, 0.00, 0.00, 0.00, 0.00, 0
180909, -36908.29, -53485.80, 0.00, 0.00, 0.00, 0.00, 0.00, 0.00, 0
180910, -36888.02, -53473.55, 0.00, 0.00, 0.00, 0.00, 0.00, 0.00, 0
180911, -36898.59, -53589.36, 0.00, 0.00, 0.00, 0.00, 0.00, 0.00, 0
180912, -36920.90, -53621.14, 0.00, 0.00, 0.00, 0.00, 0.00, 0.00, 0
180913, -36911.47, -53514.97, 0.00, 0.00, 0.00, 0.00, 0.00, 0.00, 0
180914, -36891.75, -53473.86, 0.00, 0.00, 0.00, 0.00, 0.00, 0.00, 0
180915, -36901.32, -53569.73, 0.00, 0.00, 0.00, 0.00, 0.00, 0.00, 0
180916, -36921.04, -53611.84, 0.00, 0.00, 0.00, 0.00, 0.00, 0.00, 0
180917, -36914.33, -53514.72, 0.00, 0.00, 0.00, 0.00, 0.00, 0.00, 0
180918, -36893.77, -53460.01, 0.00, 0.00, 0.00, 0.00, 0.00, 0.00, 0
180919, -36895.98, -53560.48, 0.00, 0.00, 0.00, 0.00, 0.00, 0.00, 0
180920, -36917.79, -53629.19, 0.00, 0.00, 0.00, 0.00, 0.00, 0.00, 0
180921, -36920.77, -53544.77, 0.00, 0.00, 0.00, 0.00, 0.00, 0.00, 0
180922, -36901.32, -53474.85, 0.00, 0.00, 0.00, 0.00, 0.00, 0.00, 0
180923, -36900.70, -53561.98, 0.00, 0.00, 0.00, 0.00, 0.00, 0.00, 0
180924, -36923.63, -53646.91, 0.00, 0.00, 0.00, 0.00, 0.00, 0.00, 0
180925, -36927.85, -53584.06, 0.00, 0.00, 0.00, 0.00, 0.00, 0.00, 0
180926, -36907.51, -53485.06, 0.00, 0.00, 0.00, 0.00, 0.00, 0.00, 0
180927, -36897.90, -53530.08, 0.00, 0.00, 0.00, 0.00, 0.00, 0.00, 0
180928, -36917.75, -53630.82, 0.00, 0.00, 0.00, 0.00, 0.00, 0.00, 0
180929, -36927.92, -53601.98, 0.00, 0.00, 0.00, 0.00, 0.00, 0.00, 0
180930, -36905.50, -53479.32, 0.00, 0.00, 0.00, 0.00, 0.00, 0.00, 0
180931, -36888.91, -53494.36, 0.00, 0.00, 0.00, 0.00, 0.00, 0.00, 0
180932, -36906.64, -53639.40, 0.00, 0.00, 0.00, 0.00, 0.00, 0.00, 0
180933, -36922.31, -53635.51, 0.00, 0.00, 0.00, 0.00, 0.00, 0.00, 0
180934, -36907.54, -53488.86, 0.00, 0.00, 0.00, 0.00, 0.00, 0.00, 0
180935, -36888.09, -53451.98, 0.00, 0.00, 0.00, 0.00, 0.00, 0.00, 0
180936, -36901.34, -53587.59, 0.00, 0.00, 0.00, 0.00, 0.00, 0.00, 0
180937, -36919.29, -53652.16, 0.00, 0.00, 0.00, 0.00, 0.00, 0.00, 0
180938, -36907.60, -53544.21, 0.00, 0.00, 0.00, 0.00, 0.00, 0.00, 0
180939, -36885.38, -53488.86, 0.00, 0.00, 0.00, 0.00, 0.00, 0.00, 0
180940, -36890.30, -53585.38, 0.00, 0.00, 0.00, 0.00, 0.00, 0.00, 0
180941, -36911.13, -53637.10, 0.00, 0.00, 0.00, 0.00, 0.00, 0.00, 0
180942, -36904.63, -53540.20, 0.00, 0.00, 0.00, 0.00, 0.00, 0.00, 0
180943, -36880.58, -53468.72, 0.00, 0.00, 0.00, 0.00, 0.00, 0.00, 0
180944, -36880.36, -53552.79, 0.00, 0.00, 0.00, 0.00, 0.00, 0.00, 0
180945, -36906.44, -53628.11, 0.00, 0.00, 0.00, 0.00, 0.00, 0.00, 0
180946, -36911.96, -53550.24, 0.00, 0.00, 0.00, 0.00, 0.00, 0.00, 0
180947, -36891.08, -53467.05, 0.00, 0.00, 0.00, 0.00, 0.00, 0.00, 0
180948, -36883.84, -53542.42, 0.00, 0.00, 0.00, 0.00, 0.00, 0.00, 0
180949, -36904.61, -53631.76, 0.00, 0.00, 0.00, 0.00, 0.00, 0.00, 0
180950, -36911.96, -53572.12, 0.00, 0.00, 0.00, 0.00, 0.00, 0.00, 0
180951, -36893.21, -53465.97, 0.00, 0.00, 0.00, 0.00, 0.00, 0.00, 0
180952, -36883.11, -53500.73, 0.00, 0.00, 0.00, 0.00, 0.00, 0.00, 0
180953, -36901.03, -53605.94, 0.00, 0.00, 0.00, 0.00, 0.00, 0.00, 0
180954, -36912.43, -53579.41, 0.00, 0.00, 0.00, 0.00, 0.00, 0.00, 0
180955, -36893.88, -53468.30, 0.00, 0.00, 0.00, 0.00, 0.00, 0.00, 0
180956, -36877.43, -53491.28, 0.00, 0.00, 0.00, 0.00, 0.00, 0.00, 0
180957, -36894.08, -53611.26, 0.00, 0.00, 0.00, 0.00, 0.00, 0.00, 0
180958, -36916.59, -53612.24, 0.00, 0.00, 0.00, 0.00, 0.00, 0.00, 0
180959, -36903.31, -53483.61, 0.00, 0.00, 0.00, 0.00, 0.00, 0.00, 0
180960, -36882.57, -53452.14, 0.00, 0.00, 0.00, 0.00, 0.00, 0.00, 0
180961, -36893.09, -53569.91, 0.00, 0.00, 0.00, 0.00, 0.00, 0.00, 0
180962, -36913.28, -53617.32, 0.00, 0.00, 0.00, 0.00, 0.00, 0.00, 0
180963, -36898.79, -53509.56, 0.00, 0.00, 0.00, 0.00, 0.00, 0.00, 0
180964, -36880.00, -53472.10, 0.00, 0.00, 0.00, 0.00, 0.00, 0.00, 0
180965, -36888.42, -53570.78, 0.00, 0.00, 0.00, 0.00, 0.00, 0.00, 0
180966, -36909.97, -53612.51, 0.00, 0.00, 0.00, 0.00, 0.00, 0.00, 0
180967, -36910.11, -53533.57, 0.00, 0.00, 0.00, 0.00, 0.00, 0.00, 0
180968, -36892.20, -53491.59, 0.00, 0.00, 0.00, 0.00, 0.00, 0.00, 0
180969, -36891.24, -53581.31, 0.00, 0.00, 0.00, 0.00, 0.00, 0.00, 0
180970, -36913.03, -53655.38, 0.00, 0.00, 0.00, 0.00, 0.00, 0.00, 0
180971, -36915.11, -53574.52, 0.00, 0.00, 0.00, 0.00, 0.00, 0.00, 0
180972, -36895.06, -53487.52, 0.00, 0.00, 0.00, 0.00, 0.00, 0.00, 0
180973, -36893.03, -53563.81, 0.00, 0.00, 0.00, 0.00, 0.00, 0.00, 0
180974, -36913.41, -53655.63, 0.00, 0.00, 0.00, 0.00, 0.00, 0.00, 0
180975, -36917.13, -53597.94, 0.00, 0.00, 0.00, 0.00, 0.00, 0.00, 0
180976, -36897.07, -53491.16, 0.00, 0.00, 0.00, 0.00, 0.00, 0.00, 0
180977, -36885.81, -53527.11, 0.00, 0.00, 0.00, 0.00, 0.00, 0.00, 0
180978, -36906.46, -53623.42, 0.00, 0.00, 0.00, 0.00, 0.00, 0.00, 0
180979, -36919.07, -53591.37, 0.00, 0.00, 0.00, 0.00, 0.00, 0.00, 0
180980, -36903.38, -53488.86, 0.00, 0.00, 0.00, 0.00, 0.00, 0.00, 0
180981, -36886.75, -53500.15, 0.00, 0.00, 0.00, 0.00, 0.00, 0.00, 0
180982, -36904.05, -53601.76, 0.00, 0.00, 0.00, 0.00, 0.00, 0.00, 0
180983, -36928.19, -53605.88, 0.00, 0.00, 0.00, 0.00, 0.00, 0.00, 0
180984, -36915.04, -53508.38, 0.00, 0.00, 0.00, 0.00, 0.00, 0.00, 0
180985, -36884.73, -53494.27, 0.00, 0.00, 0.00, 0.00, 0.00, 0.00, 0
180986, -36888.51, -53601.58, 0.00, 0.00, 0.00, 0.00, 0.00, 0.00, 0
180987, -36916.23, -53635.16, 0.00, 0.00, 0.00, 0.00, 0.00, 0.00, 0
180988, -36914.38, -53508.87, 0.00, 0.00, 0.00, 0.00, 0.00, 0.00, 0
180989, -36891.73, -53432.27, 0.00, 0.00, 0.00, 0.00, 0.00, 0.00, 0
180990, -36898.91, -53543.58, 0.00, 0.00, 0.00, 0.00, 0.00, 0.00, 0
180991, -36928.66, -53620.02, 0.00, 0.00, 0.00, 0.00, 0.00, 0.00, 0
180992, -36930.69, -53554.80, 0.00, 0.00, 0.00, 0.00, 0.00, 0.00, 0
180993, -36910.11, -53496.15, 0.00, 0.00, 0.00, 0.00, 0.00, 0.00, 0
180994, -36909.95, -53577.73, 0.00, 0.00, 0.00, 0.00, 0.00, 0.00, 0
180995, -36937.42, -53668.30, 0.00, 0.00, 0.00, 0.00, 0.00, 0.00, 0
180996, -36942.61, -53588.24, 0.00, 0.00, 0.00, 0.00, 0.00, 0.00, 0
180997, -36919.38, -53484.04, 0.00, 0.00, 0.00, 0.00, 0.00, 0.00, 0
180998, -36913.10, -53542.73, 0.00, 0.00, 0.00, 0.00, 0.00, 0.00, 0
180999, -36939.56, -53637.64, 0.00, 0.00, 0.00, 0.00, 0.00, 0.00, 0
181000, -36949.06, -53579.97, 0.00, 0.00, 0.00, 0.00, 0.00, 0.00, 0
181001, -36927.23, -53457.37, 0.00, 0.00, 0.00, 0.00, 0.00, 0.00, 0
181002, -36913.70, -53483.41, 0.00, 0.00, 0.00, 0.00, 0.00, 0.00, 0
181003, -36929.13, -53617.27, 0.00, 0.00, 0.00, 0.00, 0.00, 0.00, 0
181004, -36945.04, -53618.46, 0.00, 0.00, 0.00, 0.00, 0.00, 0.00, 0
181005, -36929.06, -53490.83, 0.00, 0.00, 0.00, 0.00, 0.00, 0.00, 0
181006, -36912.92, -53493.36, 0.00, 0.00, 0.00, 0.00, 0.00, 0.00, 0
181007, -36930.63, -53606.77, 0.00, 0.00, 0.00, 0.00, 0.00, 0.00, 0
181008, -36952.08, -53603.57, 0.00, 0.00, 0.00, 0.00, 0.00, 0.00, 0
181009, -36940.14, -53493.38, 0.00, 0.00, 0.00, 0.00, 0.00, 0.00, 0
181010, -36919.02, -53469.13, 0.00, 0.00, 0.00, 0.00, 0.00, 0.00, 0
181011, -36930.36, -53578.56, 0.00, 0.00, 0.00, 0.00, 0.00, 0.00, 0
181012, -36952.33, -53623.87, 0.00, 0.00, 0.00, 0.00, 0.00, 0.00, 0
181013, -36941.71, -53504.75, 0.00, 0.00, 0.00, 0.00, 0.00, 0.00, 0
181014, -36917.77, -53461.50, 0.00, 0.00, 0.00, 0.00, 0.00, 0.00, 0
