%OpenBCI Raw EEG Data
%
%Sample Rate = 250.0 Hz
%First Column = SampleIndex
%Other Columns = EEG data in microvolts with optional columns at end being unscaled Aux data
304830, -31823.68, -35409.12, 0.00, 0.00, 0.00, 0.00, 0.00, 0.00, 0
304831, -31851.99, -35522.71, 0.00, 0.00, 0.00, 0.00, 0.00, 0.00, 0
304832, -31840.53, -35495.73, 0.00, 0.00, 0.00, 0.00, 0.00, 0.00, 0
304833, -31811.58, -35390.54, 0.00, 0.00, 0.00, 0.00, 0.00, 0.00, 0
304834, -31815.40, -35409.99, 0.00, 0.00, 0.00, 0.00, 0.00, 0.00, 0
304835, -31836.71, -35510.98, 0.00, 0.00, 0.00, 0.00, 0.00, 0.00, 0
304836, -31826.16, -35494.48, 0.00, 0.00, 0.00, 0.00, 0.00, 0.00, 0
304837, -31799.07, -35385.71, 0.00, 0.00, 0.00, 0.00, 0.00, 0.00, 0
304838, -31805.57, -35364.95, 0.00, 0.00, 0.00, 0.00, 0.00, 0.00, 0
304839, -31835.21, -35460.62, 0.00, 0.00, 0.00, 0.00, 0.00, 0.00, 0
304840, -31839.48, -35483.84, 0.00, 0.00, 0.00, 0.00, 0.00, 0.00, 0
304841, -31818.02, -35385.20, 0.00, 0.00, 0.00, 0.00, 0.00, 0.00, 0
304842, -31815.38, -35355.45, 0.00, 0.00, 0.00, 0.00, 0.00, 0.00, 0
304843, -31835.86, -35461.62, 0.00, 0.00, 0.00, 0.00, 0.00, 0.00, 0
304844, -31842.63, -35501.81, 0.00, 0.00, 0.00, 0.00, 0.00, 0.00, 0
304845, -31813.15, -35394.39, 0.00, 0.00, 0.00, 0.00, 0.00, 0.00, 0
304846, -31805.21, -35338.02, 0.00, 0.00, 0.00, 0.00, 0.00, 0.00, 0
304847, -31837.00, -35447.81, 0.00, 0.00, 0.00, 0.00, 0.00, 0.00, 0
304848, -31854.19, -35527.45, 0.00, 0.00, 0.00, 0.00, 0.00, 0.00, 0
304849, -31831.65, -35446.49, 0.00, 0.00, 0.00, 0.00, 0.00, 0.00, 0
304850, -31814.60, -35358.04, 0.00, 0.00, 0.00, 0.00, 0.00, 0.00, 0
304851, -31831.39, -35406.79, 0.00, 0.00, 0.00, 0.00, 0.00, 0.00, 0
304852, -31856.98, -35498.10, 0.00, 0.00, 0.00, 0.00, 0.00, 0.00, 0
304853, -31844.39, -35461.98, 0.00, 0.00, 0.00, 0.00, 0.00, 0.00, 0
304854, -31820.17, -35367.21, 0.00, 0.00, 0.00, 0.00, 0.00, 0.00, 0
304855, -31828.08, -35404.71, 0.00, 0.00, 0.00, 0.00, 0.00, 0.00, 0
304856, -31861.65, -35507.06, 0.00, 0.00, 0.00, 0.00, 0.00, 0.00, 0
304857, -31851.95, -35492.78, 0.00, 0.00, 0.00, 0.00, 0.00, 0.00, 0
304858, -31824.23, -35376.71, 0.00, 0.00, 0.00, 0.00, 0.00, 0.00, 0
304859, -31825.17, -35371.39, 0.00, 0.00, 0.00, 0.00, 0.00, 0.00, 0
304860, -31848.69, -35481.29, 0.00, 0.00, 0.00, 0.00, 0.00, 0.00, 0
304861, -31846.83, -35491.33, 0.00, 0.00, 0.00, 0.00, 0.00, 0.00, 0
304862, -31818.22, -35379.05, 0.00, 0.00, 0.00, 0.00, 0.00, 0.00, 0
304863, -31815.07, -35344.16, 0.00, 0.00, 0.00, 0.00, 0.00, 0.00, 0
304864, -31847.90, -35458.61, 0.00, 0.00, 0.00, 0.00, 0.00, 0.00, 0
304865, -31857.85, -35502.55, 0.00, 0.00, 0.00, 0.00, 0.00, 0.00, 0
304866, -31829.87, -35398.05, 0.00, 0.00, 0.00, 0.00, 0.00, 0.00, 0
304867, -31825.22, -35351.32, 0.00, 0.00, 0.00, 0.00, 0.00, 0.00, 0
304868, -31852.26, -35450.71, 0.00, 0.00, 0.00, 0.00, 0.00, 0.00, 0
304869, -31861.27, -35501.59, 0.00, 0.00, 0.00, 0.00, 0.00, 0.00, 0
304870, -31835.05, -35412.14, 0.00, 0.00, 0.00, 0.00, 0.00, 0.00, 0
304871, -31823.79, -35350.60, 0.00, 0.00, 0.00, 0.00, 0.00, 0.00, 0
304872, -31842.79, -35427.87, 0.00, 0.00, 0.00, 0.00, 0.00, 0.00, 0
304873, -31859.59, -35497.92, 0.00, 0.00, 0.00, 0.00, 0.00, 0.00, 0
304874, -31839.19, -35431.96, 0.00, 0.00, 0.00, 0.00, 0.00, 0.00, 0
304875, -31818.20, -35348.21, 0.00, 0.00, 0.00, 0.00, 0.00, 0.00, 0
304876, -31828.30, -35394.90, 0.00, 0.00, 0.00, 0.00, 0.00, 0.00, 0
304877, -31852.20, -35491.42, 0.00, 0.00, 0.00, 0.00, 0.00, 0.00, 0
304878, -31838.96, -35452.66, 0.00, 0.00, 0.00, 0.00, 0.00, 0.00, 0
304879, -31815.05, -35354.63, 0.00, 0.00, 0.00, 0.00, 0.00, 0.00, 0
304880, -31822.56, -35385.34, 0.00, 0.00, 0.00, 0.00, 0.00, 0.00, 0
304881, -31855.62, -35502.14, 0.00, 0.00, 0.00, 0.00, 0.00, 0.00, 0
304882, -31847.32, -35491.08, 0.00, 0.00, 0.00, 0.00, 0.00, 0.00, 0
304883, -31820.68, -35381.60, 0.00, 0.00, 0.00, 0.00, 0.00, 0.00, 0
304884, -31821.95, -35379.17, 0.00, 0.00, 0.00, 0.00, 0.00, 0.00, 0
304885, -31847.41, -35484.38, 0.00, 0.00, 0.00, 0.00, 0.00, 0.00, 0
304886, -31844.17, -35486.63, 0.00, 0.00, 0.00, 0.00, 0.00, 0.00, 0
304887, -31813.15, -35374.61, 0.00, 0.00, 0.00, 0.00, 0.00, 0.00, 0
304888, -31807.00, -35353.89, 0.00, 0.00, 0.00, 0.00, 0.00, 0.00, 0
304889, -31832.32, -35472.48, 0.00, 0.00, 0.00, 0.00, 0.00, 0.00, 0
304890, -31845.54, -35511.09, 0.00, 0.00, 0.00, 0.00, 0.00, 0.00, 0
304891, -31816.14, -35406.41, 0.00, 0.00, 0.00, 0.00, 0.00, 0.00, 0
304892, -31797.50, -35346.73, 0.00, 0.00, 0.00, 0.00, 0.00, 0.00, 0
304893, -31826.56, -35437.32, 0.00, 0.00, 0.00, 0.00, 0.00, 0.00, 0
304894, -31842.09, -35500.76, 0.00, 0.00, 0.00, 0.00, 0.00, 0.00, 0
304895, -31821.84, -35417.72, 0.00, 0.00, 0.00, 0.00, 0.00, 0.00, 0
304896, -31807.45, -35334.64, 0.00, 0.00, 0.00, 0.00, 0.00, 0.00, 0
304897, -31819.61, -35405.86, 0.00, 0.00, 0.00, 0.00, 0.00, 0.00, 0
304898, -31830.92, -35488.94, 0.00, 0.00, 0.00, 0.00, 0.00, 0.00, 0
304899, -31813.51, -35437.84, 0.00, 0.00, 0.00, 0.00, 0.00, 0.00, 0
304900, -31795.73, -35345.44, 0.00, 0.00, 0.00, 0.00, 0.00, 0.00, 0
304901, -31810.26, -35391.84, 0.00, 0.00, 0.00, 0.00, 0.00, 0.00, 0
304902, -31837.80, -35492.02, 0.00, 0.00, 0.00, 0.00, 0.00, 0.00, 0
304903, -31826.27, -35462.88, 0.00, 0.00, 0.00, 0.00, 0.00, 0.00, 0
304904, -31799.15, -35350.38, 0.00, 0.00, 0.00, 0.00, 0.00, 0.00, 0
304905, -31811.56, -35363.23, 0.00, 0.00, 0.00, 0.00, 0.00, 0.00, 0
304906, -31840.08, -35476.04, 0.00, 0.00, 0.00, 0.00, 0.00, 0.00, 0
304907, -31836.95, -35472.82, 0.00, 0.00, 0.00, 0.00, 0.00, 0.00, 0
304908, -31813.59, -35373.76, 0.00, 0.00, 0.00, 0.00, 0.00, 0.00, 0
304909, -31819.36, -35375.57, 0.00, 0.00, 0.00, 0.00, 0.00, 0.00, 0
304910, -31843.61, -35477.94, 0.00, 0.00, 0.00, 0.00, 0.00, 0.00, 0
304911, -31844.53, -35476.82, 0.00, 0.00, 0.00, 0.00, 0.00, 0.00, 0
304912, -31816.28, -35368.39, 0.00, 0.00, 0.00, 0.00, 0.00, 0.00, 0
304913, -31811.00, -35348.99, 0.00, 0.00, 0.00, 0.00, 0.00, 0.00, 0
304914, -31838.63, -35456.79, 0.00, 0.00, 0.00, 0.00, 0.00, 0.00, 0
304915, -31848.13, -35498.95, 0.00, 0.00, 0.00, 0.00, 0.00, 0.00, 0
304916, -31824.44, -35416.47, 0.00, 0.00, 0.00, 0.00, 0.00, 0.00, 0
304917, -31812.97, -35363.03, 0.00, 0.00, 0.00, 0.00, 0.00, 0.00, 0
304918, -31833.82, -35444.64, 0.00, 0.00, 0.00, 0.00, 0.00, 0.00, 0
304919, -31844.75, -35498.61, 0.00, 0.00, 0.00, 0.00, 0.00, 0.00, 0
304920, -31820.03, -35424.43, 0.00, 0.00, 0.00, 0.00, 0.00, 0.00, 0
304921, -31804.21, -35354.91, 0.00, 0.00, 0.00, 0.00, 0.00, 0.00, 0
304922, -31822.94, -35419.67, 0.00, 0.00, 0.00, 0.00, 0.00, 0.00, 0
304923, -31837.40, -35494.30, 0.00, 0.00, 0.00, 0.00, 0.00, 0.00, 0
304924, -31812.37, -35447.81, 0.00, 0.00, 0.00, 0.00, 0.00, 0.00, 0
304925, -31795.29, -35360.93, 0.00, 0.00, 0.00, 0.00, 0.00, 0.00, 0
304926, -31812.37, -35397.88, 0.00, 0.00, 0.00, 0.00, 0.00, 0.00, 0
304927, -31832.37, -35491.37, 0.00, 0.00, 0.00, 0.00, 0.00, 0.00, 0
304928, -31817.64, -35462.36, 0.00, 0.00, 0.00, 0.00, 0.00, 0.00, 0
304929, -31795.38, -35363.52, 0.00, 0.00, 0.00, 0.00, 0.00, 0.00, 0
304930, -31802.33, -35375.84, 0.00, 0.00, 0.00, 0.00, 0.00, 0.00, 0
304931, -31825.62, -35478.12, 0.00, 0.00, 0.00, 0.00, 0.00, 0.00, 0
304932, -31818.38, -35472.20, 0.00, 0.00, 0.00, 0.00, 0.00, 0.00, 0
304933, -31794.84, -35379.93, 0.00, 0.00, 0.00, 0.00, 0.00, 0.00, 0
304934, -31794.44, -35373.87, 0.00, 0.00, 0.00, 0.00, 0.00, 0.00, 0
304935, -31820.14, -35472.42, 0.00, 0.00, 0.00, 0.00, 0.00, 0.00, 0
304936, -31828.03, -35496.76, 0.00, 0.00, 0.00, 0.00, 0.00, 0.00, 0
304937, -31799.56, -35396.31, 0.00, 0.00, 0.00, 0.00, 0.00, 0.00, 0
304938, -31792.94, -35349.11, 0.00, 0.00, 0.00, 0.00, 0.00, 0.00, 0
304939, -31820.26, -35434.46, 0.00, 0.00, 0.00, 0.00, 0.00, 0.00, 0
304940, -31831.19, -35481.63, 0.00, 0.00, 0.00, 0.00, 0.00, 0.00, 0
304941, -31810.62, -35403.57, 0.00, 0.00, 0.00, 0.00, 0.00, 0.00, 0
304942, -31798.69, -35354.78, 0.00, 0.00, 0.00, 0.00, 0.00, 0.00, 0
304943, -31812.61, -35430.46, 0.00, 0.00, 0.00, 0.00, 0.00, 0.00, 0
304944, -31831.03, -35502.64, 0.00, 0.00, 0.00, 0.00, 0.00, 0.00, 0
304945, -31809.77, -35435.29, 0.00, 0.00, 0.00, 0.00, 0.00, 0.00, 0
304946, -31794.24, -35340.01, 0.00, 0.00, 0.00, 0.00, 0.00, 0.00, 0
304947, -31811.98, -35389.52, 0.00, 0.00, 0.00, 0.00, 0.00, 0.00, 0
304948, -31830.78, -35492.91, 0.00, 0.00, 0.00, 0.00, 0.00, 0.00, 0
304949, -31814.64, -35459.86, 0.00, 0.00, 0.00, 0.00, 0.00, 0.00, 0
304950, -31796.67, -35349.93, 0.00, 0.00, 0.00, 0.00, 0.00, 0.00, 0
304951, -31812.12, -35366.80, 0.00, 0.00, 0.00, 0.00, 0.00, 0.00, 0
304952, -31835.68, -35466.16, 0.00, 0.00, 0.00, 0.00, 0.00, 0.00, 0
304953, -31826.40, -35460.84, 0.00, 0.00, 0.00, 0.00, 0.00, 0.00, 0
304954, -31798.98, -35373.27, 0.00, 0.00, 0.00, 0.00, 0.00, 0.00, 0
304955, -31802.49, -35385.43, 0.00, 0.00, 0.00, 0.00, 0.00, 0.00, 0
304956, -31820.39, -35481.58, 0.00, 0.00, 0.00, 0.00, 0.00, 0.00, 0
304957, -31812.88, -35475.48, 0.00, 0.00, 0.00, 0.00, 0.00, 0.00, 0
304958, -31788.70, -35378.18, 0.00, 0.00, 0.00, 0.00, 0.00, 0.00, 0
304959, -31793.52, -35358.04, 0.00, 0.00, 0.00, 0.00, 0.00, 0.00, 0
304960, -31820.08, -35458.94, 0.00, 0.00, 0.00, 0.00, 0.00, 0.00, 0
304961, -31822.87, -35489.85, 0.00, 0.00, 0.00, 0.00, 0.00, 0.00, 0
304962, -31795.49, -35398.05, 0.00, 0.00, 0.00, 0.00, 0.00, 0.00, 0
304963, -31790.39, -35356.57, 0.00, 0.00, 0.00, 0.00, 0.00, 0.00, 0
304964, -31814.47, -35446.94, 0.00, 0.00, 0.00, 0.00, 0.00, 0.00, 0
304965, -31819.61, -35499.42, 0.00, 0.00, 0.00, 0.00, 0.00, 0.00, 0
304966, -31794.15, -35414.32, 0.00, 0.00, 0.00, 0.00, 0.00, 0.00, 0
304967, -31782.79, -35342.98, 0.00, 0.00, 0.00, 0.00, 0.00, 0.00, 0
304968, -31807.22, -35412.89, 0.00, 0.00, 0.00, 0.00, 0.00, 0.00, 0
304969, -31827.03, -35486.32, 0.00, 0.00, 0.00, 0.00, 0.00, 0.00, 0
304970, -31802.35, -35430.66, 0.00, 0.00, 0.00, 0.00, 0.00, 0.00, 0
304971, -31787.44, -35359.70, 0.00, 0.00, 0.00, 0.00, 0.00, 0.00, 0
304972, -31804.27, -35410.50, 0.00, 0.00, 0.00, 0.00, 0.00, 0.00, 0
304973, -31824.08, -35481.09, 0.00, 0.00, 0.00, 0.00, 0.00, 0.00, 0
304974, -31807.56, -35430.49, 0.00, 0.00, 0.00, 0.00, 0.00, 0.00, 0
304975, -31785.68, -35344.79, 0.00, 0.00, 0.00, 0.00, 0.00, 0.00, 0
304976, -31794.37, -35388.93, 0.00, 0.00, 0.00, 0.00, 0.00, 0.00, 0
304977, -31817.28, -35493.88, 0.00, 0.00, 0.00, 0.00, 0.00, 0.00, 0
304978, -31810.02, -35467.79, 0.00, 0.00, 0.00, 0.00, 0.00, 0.00, 0
304979, -31789.03, -35372.62, 0.00, 0.00, 0.00, 0.00, 0.00, 0.00, 0
304980, -31791.40, -35376.35, 0.00, 0.00, 0.00, 0.00, 0.00, 0.00, 0
304981, -31816.90, -35469.63, 0.00, 0.00, 0.00, 0.00, 0.00, 0.00, 0
304982, -31817.08, -35488.63, 0.00, 0.00, 0.00, 0.00, 0.00, 0.00, 0
304983, -31790.91, -35401.90, 0.00, 0.00, 0.00, 0.00, 0.00, 0.00, 0
304984, -31790.86, -35366.89, 0.00, 0.00, 0.00, 0.00, 0.00, 0.00, 0
304985, -31815.88, -35442.80, 0.00, 0.00, 0.00, 0.00, 0.00, 0.00, 0
304986, -31820.05, -35475.93, 0.00, 0.00, 0.00, 0.00, 0.00, 0.00, 0
304987, -31793.52, -35394.25, 0.00, 0.00, 0.00, 0.00, 0.00, 0.00, 0
304988, -31792.20, -35346.71, 0.00, 0.00, 0.00, 0.00, 0.00, 0.00, 0
304989, -31814.24, -35429.12, 0.00, 0.00, 0.00, 0.00, 0.00, 0.00, 0
304990, -31822.18, -35487.66, 0.00, 0.00, 0.00, 0.00, 0.00, 0.00, 0
304991, -31797.63, -35419.71, 0.00, 0.00, 0.00, 0.00, 0.00, 0.00, 0
304992, -31785.56, -35344.39, 0.00, 0.00, 0.00, 0.00, 0.00, 0.00, 0
304993, -31804.70, -35403.39, 0.00, 0.00, 0.00, 0.00, 0.00, 0.00, 0
304994, -31817.44, -35479.57, 0.00, 0.00, 0.00, 0.00, 0.00, 0.00, 0
304995, -31794.39, -35428.52, 0.00, 0.00, 0.00, 0.00, 0.00, 0.00, 0
304996, -31780.67, -35344.88, 0.00, 0.00, 0.00, 0.00, 0.00, 0.00, 0
304997, -31801.08, -35398.39, 0.00, 0.00, 0.00, 0.00, 0.00, 0.00, 0
304998, -31823.96, -35483.32, 0.00, 0.00, 0.00, 0.00, 0.00, 0.00, 0
304999, -31808.74, -35447.05, 0.00, 0.00, 0.00, 0.00, 0.00, 0.00, 0
305000, -31785.32, -35343.83, 0.00, 0.00, 0.00, 0.00, 0.00, 0.00, 0
305001, -31792.99, -35369.96, 0.00, 0.00, 0.00, 0.00, 0.00, 0.00, 0
305002, -31819.38, -35482.19, 0.00, 0.00, 0.00, 0.00, 0.00, 0.00, 0
305003, -31811.00, -35483.53, 0.00, 0.00, 0.00, 0.00, 0.00, 0.00, 0
305004, -31782.48, -35386.03, 0.00, 0.00, 0.00, 0.00, 0.00, 0.00, 0
305005, -31785.61, -35371.90, 0.00, 0.00, 0.00, 0.00, 0.00, 0.00, 0
305006, -31815.67, -35468.17, 0.00, 0.00, 0.00, 0.00, 0.00, 0.00, 0
305007, -31810.71, -35478.77, 0.00, 0.00, 0.00, 0.00, 0.00, 0.00, 0
305008, -31778.01, -35376.82, 0.00, 0.00, 0.00, 0.00, 0.00, 0.00, 0
305009, -31778.21, -35344.50, 0.00, 0.00, 0.00, 0.00, 0.00, 0.00, 0
305010, -31807.34, -35440.97, 0.00, 0.00, 0.00, 0.00, 0.00, 0.00, 0
305011, -31816.57, -35492.36, 0.00, 0.00, 0.00, 0.00, 0.00, 0.00, 0
305012, -31793.14, -35407.33, 0.00, 0.00, 0.00, 0.00, 0.00, 0.00, 0
305013, -31785.65, -35343.34, 0.00, 0.00, 0.00, 0.00, 0.00, 0.00, 0
305014, -31804.83, -35415.36, 0.00, 0.00, 0.00, 0.00, 0.00, 0.00, 0
305015, -31812.74, -35483.59, 0.00, 0.00, 0.00, 0.00, 0.00, 0.00, 0
305016, -31791.40, -35424.77, 0.00, 0.00, 0.00, 0.00, 0.00, 0.00, 0
305017, -31784.20, -35342.09, 0.00, 0.00, 0.00, 0.00, 0.00, 0.00, 0
305018, -31802.04, -35393.92, 0.00, 0.00, 0.00, 0.00, 0.00, 0.00, 0
305019, -31819.96, -35477.27, 0.00, 0.00, 0.00, 0.00, 0.00, 0.00, 0
305020, -31803.13, -35427.34, 0.00, 0.00, 0.00, 0.00, 0.00, 0.00, 0
305021, -31781.97, -35338.82, 0.00, 0.00, 0.00, 0.00, 0.00, 0.00, 0
305022, -31797.05, -35378.41, 0.00, 0.00, 0.00, 0.00, 0.00, 0.00, 0
305023, -31823.12, -35478.05, 0.00, 0.00, 0.00, 0.00, 0.00, 0.00, 0
305024, -31803.71, -35462.29, 0.00, 0.00, 0.00, 0.00, 0.00, 0.00, 0
305025, -31780.40, -35359.96, 0.00, 0.00, 0.00, 0.00, 0.00, 0.00, 0
305026, -31797.17, -35365.87, 0.00, 0.00, 0.00, 0.00, 0.00, 0.00, 0
305027, -31826.47, -35469.58, 0.00, 0.00, 0.00, 0.00, 0.00, 0.00, 0
305028, -31818.98, -35460.75, 0.00, 0.00, 0.00, 0.00, 0.00, 0.00, 0
305029, -31791.87, -35354.22, 0.00, 0.00, 0.00, 0.00, 0.00, 0.00, 0
305030, -31794.44, -35345.17, 0.00, 0.00, 0.00, 0.00, 0.00, 0.00, 0
305031, -31821.87, -35454.38, 0.00, 0.00, 0.00, 0.00, 0.00, 0.00, 0
305032, -31824.44, -35492.45, 0.00, 0.00, 0.00, 0.00, 0.00, 0.00, 0
305033, -31793.23, -35392.55, 0.00, 0.00, 0.00, 0.00, 0.00, 0.00, 0
305034, -31782.59, -35338.38, 0.00, 0.00, 0.00, 0.00, 0.00, 0.00, 0
305035, -31814.82, -35423.40, 0.00, 0.00, 0.00, 0.00, 0.00, 0.00, 0
305036, -31828.37, -35473.34, 0.00, 0.00, 0.00, 0.00, 0.00, 0.00, 0
305037, -31797.05, -35389.38, 0.00, 0.00, 0.00, 0.00, 0.00, 0.00, 0
305038, -31782.21, -35326.71, 0.00, 0.00, 0.00, 0.00, 0.00, 0.00, 0
305039, -31800.90, -35406.75, 0.00, 0.00, 0.00, 0.00, 0.00, 0.00, 0
305040, -31809.19, -35479.44, 0.00, 0.00, 0.00, 0.00, 0.00, 0.00, 0
305041, -31784.78, -35417.86, 0.00, 0.00, 0.00, 0.00, 0.00, 0.00, 0
305042, -31776.45, -35338.09, 0.00, 0.00, 0.00, 0.00, 0.00, 0.00, 0
305043, -31794.19, -35389.83, 0.00, 0.00, 0.00, 0.00, 0.00, 0.00, 0
305044, -31812.72, -35473.49, 0.00, 0.00, 0.00, 0.00, 0.00, 0.00, 0
305045, -31798.73, -35424.21, 0.00, 0.00, 0.00, 0.00, 0.00, 0.00, 0
305046, -31778.17, -35334.06, 0.00, 0.00, 0.00, 0.00, 0.00, 0.00, 0
305047, -31788.47, -35369.11, 0.00, 0.00, 0.00, 0.00, 0.00, 0.00, 0
305048, -31813.15, -35464.86, 0.00, 0.00, 0.00, 0.00, 0.00, 0.00, 0
305049, -31800.09, -35447.12, 0.00, 0.00, 0.00, 0.00, 0.00, 0.00, 0
305050, -31774.43, -35357.13, 0.00, 0.00, 0.00, 0.00, 0.00, 0.00, 0
305051, -31782.62, -35363.12, 0.00, 0.00, 0.00, 0.00, 0.00, 0.00, 0
305052, -31810.09, -35458.96, 0.00, 0.00, 0.00, 0.00, 0.00, 0.00, 0
305053, -31807.94, -35464.13, 0.00, 0.00, 0.00, 0.00, 0.00, 0.00, 0
305054, -31783.60, -35355.95, 0.00, 0.00, 0.00, 0.00, 0.00, 0.00, 0
305055, -31787.09, -35321.16, 0.00, 0.00, 0.00, 0.00, 0.00, 0.00, 0
305056, -31813.10, -35414.13, 0.00, 0.00, 0.00, 0.00, 0.00, 0.00, 0
305057, -31814.35, -35470.25, 0.00, 0.00, 0.00, 0.00, 0.00, 0.00, 0
305058, -31789.77, -35405.32, 0.00, 0.00, 0.00, 0.00, 0.00, 0.00, 0
305059, -31787.64, -35356.77, 0.00, 0.00, 0.00, 0.00, 0.00, 0.00, 0
305060, -31810.62, -35427.52, 0.00, 0.00, 0.00, 0.00, 0.00, 0.00, 0
305061, -31816.86, -35474.81, 0.00, 0.00, 0.00, 0.00, 0.00, 0.00, 0
305062, -31793.14, -35398.61, 0.00, 0.00, 0.00, 0.00, 0.00, 0.00, 0
305063, -31788.90, -35330.21, 0.00, 0.00, 0.00, 0.00, 0.00, 0.00, 0
305064, -31809.41, -35410.79, 0.00, 0.00, 0.00, 0.00, 0.00, 0.00, 0
305065, -31822.69, -35487.66, 0.00, 0.00, 0.00, 0.00, 0.00, 0.00, 0
305066, -31799.58, -35425.99, 0.00, 0.00, 0.00, 0.00, 0.00, 0.00, 0
305067, -31780.51, -35342.71, 0.00, 0.00, 0.00, 0.00, 0.00, 0.00, 0
305068, -31795.27, -35387.06, 0.00, 0.00, 0.00, 0.00, 0.00, 0.00, 0
305069, -31814.04, -35470.16, 0.00, 0.00, 0.00, 0.00, 0.00, 0.00, 0
305070, -31796.76, -35444.86, 0.00, 0.00, 0.00, 0.00, 0.00, 0.00, 0
305071, -31774.39, -35355.47, 0.00, 0.00, 0.00, 0.00, 0.00, 0.00, 0
305072, -31796.23, -35377.09, 0.00, 0.00, 0.00, 0.00, 0.00, 0.00, 0
305073, -31830.31, -35473.69, 0.00, 0.00, 0.00, 0.00, 0.00, 0.00, 0
305074, -31816.48, -35463.61, 0.00, 0.00, 0.00, 0.00, 0.00, 0.00, 0
305075, -31788.07, -35357.39, 0.00, 0.00, 0.00, 0.00, 0.00, 0.00, 0
305076, -31790.21, -35341.86, 0.00, 0.00, 0.00, 0.00, 0.00, 0.00, 0
305077, -31814.87, -35442.24, 0.00, 0.00, 0.00, 0.00, 0.00, 0.00, 0
305078, -31813.48, -35479.73, 0.00, 0.00, 0.00, 0.00, 0.00, 0.00, 0
305079, -31789.63, -35390.90, 0.00, 0.00, 0.00, 0.00, 0.00, 0.00, 0
305080, -31786.88, -35353.11, 0.00, 0.00, 0.00, 0.00, 0.00, 0.00, 0
305081, -31806.26, -35445.64, 0.00, 0.00, 0.00, 0.00, 0.00, 0.00, 0
305082, -31807.63, -35471.68, 0.00, 0.00, 0.00, 0.00, 0.00, 0.00, 0
305083, -31789.46, -35377.25, 0.00, 0.00, 0.00, 0.00, 0.00, 0.00, 0
305084, -31785.52, -35332.18, 0.00, 0.00, 0.00, 0.00, 0.00, 0.00, 0
305085, -31805.73, -35428.00, 0.00, 0.00, 0.00, 0.00, 0.00, 0.00, 0
305086, -31814.73, -35483.30, 0.00, 0.00, 0.00, 0.00, 0.00, 0.00, 0
305087, -31791.69, -35392.13, 0.00, 0.00, 0.00, 0.00, 0.00, 0.00, 0
305088, -31783.53, -35334.78, 0.00, 0.00, 0.00, 0.00, 0.00, 0.00, 0
305089, -31804.99, -35415.40, 0.00, 0.00, 0.00, 0.00, 0.00, 0.00, 0
305090, -31818.91, -35481.00, 0.00, 0.00, 0.00, 0.00, 0.00, 0.00, 0
305091, -31789.77, -35408.27, 0.00, 0.00, 0.00, 0.00, 0.00, 0.00, 0
305092, -31768.91, -35308.87, 0.00, 0.00, 0.00, 0.00, 0.00, 0.00, 0
305093, -31787.35, -35360.70, 0.00, 0.00, 0.00, 0.00, 0.00, 0.00, 0
305094, -31809.71, -35466.25, 0.00, 0.00, 0.00, 0.00, 0.00, 0.00, 0
305095, -31796.32, -35448.46, 0.00, 0.00, 0.00, 0.00, 0.00, 0.00, 0
305096, -31773.81, -35356.03, 0.00, 0.00, 0.00, 0.00, 0.00, 0.00, 0
305097, -31779.49, -35373.47, 0.00, 0.00, 0.00, 0.00, 0.00, 0.00, 0
305098, -31811.29, -35464.98, 0.00, 0.00, 0.00, 0.00, 0.00, 0.00, 0
305099, -31803.69, -35453.24, 0.00, 0.00, 0.00, 0.00, 0.00, 0.00, 0
305100, -31774.61, -35358.60, 0.00, 0.00, 0.00, 0.00, 0.00, 0.00, 0
305101, -31776.71, -35351.79, 0.00, 0.00, 0.00, 0.00, 0.00, 0.00, 0
305102, -31801.64, -35447.43, 0.00, 0.00, 0.00, 0.00, 0.00, 0.00, 0
305103, -31794.19, -35460.30, 0.00, 0.00, 0.00, 0.00, 0.00, 0.00, 0
305104, -31757.92, -35363.95, 0.00, 0.00, 0.00, 0.00, 0.00, 0.00, 0
305105, -31762.88, -35332.16, 0.00, 0.00, 0.00, 0.00, 0.00, 0.00, 0
305106, -31793.03, -35430.40, 0.00, 0.00, 0.00, 0.00, 0.00, 0.00, 0
305107, -31794.71, -35465.71, 0.00, 0.00, 0.00, 0.00, 0.00, 0.00, 0
305108, -31767.04, -35372.57, 0.00, 0.00, 0.00, 0.00, 0.00, 0.00, 0
305109, -31761.56, -35323.38, 0.00, 0.00, 0.00, 0.00, 0.00, 0.00, 0
305110, -31787.24, -35409.05, 0.00, 0.00, 0.00, 0.00, 0.00, 0.00, 0
305111, -31802.44, -35463.03, 0.00, 0.00, 0.00, 0.00, 0.00, 0.00, 0
305112, -31780.22, -35382.74, 0.00, 0.00, 0.00, 0.00, 0.00, 0.00, 0
305113, -31765.78, -35315.35, 0.00, 0.00, 0.00, 0.00, 0.00, 0.00, 0
305114, -31787.42, -35376.80, 0.00, 0.00, 0.00, 0.00, 0.00, 0.00, 0
305115, -31806.02, -35451.70, 0.00, 0.00, 0.00, 0.00, 0.00, 0.00, 0
305116, -31779.73, -35404.69, 0.00, 0.00, 0.00, 0.00, 0.00, 0.00, 0
305117, -31762.63, -35326.80, 0.00, 0.00, 0.00, 0.00, 0.00, 0.00, 0
305118, -31784.22, -35372.91, 0.00, 0.00, 0.00, 0.00, 0.00, 0.00, 0
305119, -31806.22, -35459.21, 0.00, 0.00, 0.00, 0.00, 0.00, 0.00, 0
305120, -31793.08, -35438.64, 0.00, 0.00, 0.00, 0.00, 0.00, 0.00, 0
305121, -31778.12, -35349.33, 0.00, 0.00, 0.00, 0.00, 0.00, 0.00, 0
305122, -31786.44, -35367.61, 0.00, 0.00, 0.00, 0.00, 0.00, 0.00, 0
305123, -31807.07, -35460.93, 0.00, 0.00, 0.00, 0.00, 0.00, 0.00, 0
305124, -31798.02, -35451.07, 0.00, 0.00, 0.00, 0.00, 0.00, 0.00, 0
305125, -31769.63, -35352.86, 0.00, 0.00, 0.00, 0.00, 0.00, 0.00, 0
305126, -31772.18, -35340.05, 0.00, 0.00, 0.00, 0.00, 0.00, 0.00, 0
305127, -31795.38, -35433.08, 0.00, 0.00, 0.00, 0.00, 0.00, 0.00, 0
305128, -31791.20, -35454.54, 0.00, 0.00, 0.00, 0.00, 0.00, 0.00, 0
305129, -31770.19, -35378.70, 0.00, 0.00, 0.00, 0.00, 0.00, 0.00, 0
305130, -31770.10, -35336.36, 0.00, 0.00, 0.00, 0.00, 0.00, 0.00, 0
305131, -31791.87, -35419.33, 0.00, 0.00, 0.00, 0.00, 0.00, 0.00, 0
305132, -31796.94, -35467.28, 0.00, 0.00, 0.00, 0.00, 0.00, 0.00, 0
305133, -31771.55, -35381.38, 0.00, 0.00, 0.00, 0.00, 0.00, 0.00, 0
305134, -31757.96, -35316.80, 0.00, 0.00, 0.00, 0.00, 0.00, 0.00, 0
305135, -31779.46, -35396.20, 0.00, 0.00, 0.00, 0.00, 0.00, 0.00, 0
305136, -31795.94, -35472.98, 0.00, 0.00, 0.00, 0.00, 0.00, 0.00, 0
305137, -31774.70, -35403.98, 0.00, 0.00, 0.00, 0.00, 0.00, 0.00, 0
305138, -31761.94, -35322.50, 0.00, 0.00, 0.00, 0.00, 0.00, 0.00, 0
305139, -31782.06, -35367.79, 0.00, 0.00, 0.00, 0.00, 0.00, 0.00, 0
305140, -31796.38, -35433.35, 0.00, 0.00, 0.00, 0.00, 0.00, 0.00, 0
305141, -31775.82, -35386.97, 0.00, 0.00, 0.00, 0.00, 0.00, 0.00, 0
305142, -31755.28, -35303.73, 0.00, 0.00, 0.00, 0.00, 0.00, 0.00, 0
305143, -31769.09, -35358.76, 0.00, 0.00, 0.00, 0.00, 0.00, 0.00, 0
305144, -31797.26, -35474.09, 0.00, 0.00, 0.00, 0.00, 0.00, 0.00, 0
305145, -31783.93, -35448.52, 0.00, 0.00, 0.00, 0.00, 0.00, 0.00, 0
305146, -31761.40, -35355.18, 0.00, 0.00, 0.00, 0.00, 0.00, 0.00, 0
305147, -31765.52, -35348.66, 0.00, 0.00, 0.00, 0.00, 0.00, 0.00, 0
305148, -31792.94, -35445.82, 0.00, 0.00, 0.00, 0.00, 0.00, 0.00, 0
305149, -31789.61, -35462.74, 0.00, 0.00, 0.00, 0.00, 0.00, 0.00, 0
305150, -31762.05, -35360.32, 0.00, 0.00, 0.00, 0.00, 0.00, 0.00, 0
305151, -31765.85, -35334.80, 0.00, 0.00, 0.00, 0.00, 0.00, 0.00, 0
305152, -31790.48, -35432.70, 0.00, 0.00, 0.00, 0.00, 0.00, 0.00, 0
305153, -31786.77, -35465.91, 0.00, 0.00, 0.00, 0.00, 0.00, 0.00, 0
305154, -31759.46, -35369.87, 0.00, 0.00, 0.00, 0.00, 0.00, 0.00, 0
305155, -31757.36, -35313.70, 0.00, 0.00, 0.00, 0.00, 0.00, 0.00, 0
305156, -31781.74, -35399.51, 0.00, 0.00, 0.00, 0.00, 0.00, 0.00, 0
305157, -31792.58, -35459.25, 0.00, 0.00, 0.00, 0.00, 0.00, 0.00, 0
305158, -31769.00, -35381.92, 0.00, 0.00, 0.00, 0.00, 0.00, 0.00, 0
305159, -31754.70, -35318.88, 0.00, 0.00, 0.00, 0.00, 0.00, 0.00, 0
305160, -31777.23, -35389.16, 0.00, 0.00, 0.00, 0.00, 0.00, 0.00, 0
305161, -31799.33, -35453.93, 0.00, 0.00, 0.00, 0.00, 0.00, 0.00, 0
305162, -31777.12, -35393.00, 0.00, 0.00, 0.00, 0.00, 0.00, 0.00, 0
305163, -31757.58, -35316.34, 0.00, 0.00, 0.00, 0.00, 0.00, 0.00, 0
305164, -31772.38, -35361.84, 0.00, 0.00, 0.00, 0.00, 0.00, 0.00, 0
305165, -31789.48, -35446.63, 0.00, 0.00, 0.00, 0.00, 0.00, 0.00, 0
305166, -31777.52, -35423.96, 0.00, 0.00, 0.00, 0.00, 0.00, 0.00, 0
305167, -31758.23, -35343.79, 0.00, 0.00, 0.00, 0.00, 0.00, 0.00, 0
305168, -31769.54, -35357.80, 0.00, 0.00, 0.00, 0.00, 0.00, 0.00, 0
305169, -31799.98, -35450.02, 0.00, 0.00, 0.00, 0.00, 0.00, 0.00, 0
305170, -31786.66, -35437.28, 0.00, 0.00, 0.00, 0.00, 0.00, 0.00, 0
305171, -31755.03, -35354.27, 0.00, 0.00, 0.00, 0.00, 0.00, 0.00, 0
305172, -31761.45, -35355.77, 0.00, 0.00, 0.00, 0.00, 0.00, 0.00, 0
305173, -31789.88, -35446.76, 0.00, 0.00, 0.00, 0.00, 0.00, 0.00, 0
305174, -31784.22, -35443.38, 0.00, 0.00, 0.00, 0.00, 0.00, 0.00, 0
305175, -31756.96, -35351.99, 0.00, 0.00, 0.00, 0.00, 0.00, 0.00, 0
305176, -31759.97, -35337.39, 0.00, 0.00, 0.00, 0.00, 0.00, 0.00, 0
305177, -31785.45, -35430.98, 0.00, 0.00, 0.00, 0.00, 0.00, 0.00, 0
305178, -31785.63, -35459.57, 0.00, 0.00, 0.00, 0.00, 0.00, 0.00, 0
305179, -31755.05, -35365.60, 0.00, 0.00, 0.00, 0.00, 0.00, 0.00, 0
305180, -31749.69, -35309.05, 0.00, 0.00, 0.00, 0.00, 0.00, 0.00, 0
305181, -31779.60, -35386.48, 0.00, 0.00, 0.00, 0.00, 0.00, 0.00, 0
305182, -31793.84, -35441.17, 0.00, 0.00, 0.00, 0.00, 0.00, 0.00, 0
305183, -31768.47, -35373.36, 0.00, 0.00, 0.00, 0.00, 0.00, 0.00, 0
305184, -31756.44, -35308.67, 0.00, 0.00, 0.00, 0.00, 0.00, 0.00, 0
305185, -31780.87, -35373.31, 0.00, 0.00, 0.00, 0.00, 0.00, 0.00, 0
305186, -31793.81, -35443.74, 0.00, 0.00, 0.00, 0.00, 0.00, 0.00, 0
305187, -31767.04, -35380.93, 0.00, 0.00, 0.00, 0.00, 0.00, 0.00, 0
305188, -31742.36, -35305.50, 0.00, 0.00, 0.00, 0.00, 0.00, 0.00, 0
305189, -31755.68, -35367.23, 0.00, 0.00, 0.00, 0.00, 0.00, 0.00, 0
305190, -31775.04, -35455.48, 0.00, 0.00, 0.00, 0.00, 0.00, 0.00, 0
305191, -31753.54, -35409.99, 0.00, 0.00, 0.00, 0.00, 0.00, 0.00, 0
305192, -31728.17, -35316.63, 0.00, 0.00, 0.00, 0.00, 0.00, 0.00, 0
305193, -31733.82, -35334.78, 0.00, 0.00, 0.00, 0.00, 0.00, 0.00, 0
305194, -31758.72, -35444.88, 0.00, 0.00, 0.00, 0.00, 0.00, 0.00, 0
305195, -31750.76, -35439.61, 0.00, 0.00, 0.00, 0.00, 0.00, 0.00, 0
305196, -31726.67, -35329.10, 0.00, 0.00, 0.00, 0.00, 0.00, 0.00, 0
305197, -31729.11, -35329.81, 0.00, 0.00, 0.00, 0.00, 0.00, 0.00, 0
305198, -31758.41, -35423.67, 0.00, 0.00, 0.00, 0.00, 0.00, 0.00, 0
305199, -31759.01, -35439.29, 0.00, 0.00, 0.00, 0.00, 0.00, 0.00, 0
305200, -31730.78, -35356.52, 0.00, 0.00, 0.00, 0.00, 0.00, 0.00, 0
305201, -31730.74, -35322.80, 0.00, 0.00, 0.00, 0.00, 0.00, 0.00, 0
305202, -31757.18, -35406.70, 0.00, 0.00, 0.00, 0.00, 0.00, 0.00, 0
305203, -31762.03, -35442.24, 0.00, 0.00, 0.00, 0.00, 0.00, 0.00, 0
305204, -31733.82, -35350.60, 0.00, 0.00, 0.00, 0.00, 0.00, 0.00, 0
305205, -31722.47, -35293.96, 0.00, 0.00, 0.00, 0.00, 0.00, 0.00, 0
305206, -31749.51, -35384.57, 0.00, 0.00, 0.00, 0.00, 0.00, 0.00, 0
305207, -31765.36, -35450.56, 0.00, 0.00, 0.00, 0.00, 0.00, 0.00, 0
305208, -31739.12, -35365.69, 0.00, 0.00, 0.00, 0.00, 0.00, 0.00, 0
305209, -31722.00, -35274.07, 0.00, 0.00, 0.00, 0.00, 0.00, 0.00, 0
305210, -31746.43, -35348.19, 0.00, 0.00, 0.00, 0.00, 0.00, 0.00, 0
305211, -31768.94, -35458.23, 0.00, 0.00, 0.00, 0.00, 0.00, 0.00, 0
305212, -31750.76, -35416.09, 0.00, 0.00, 0.00, 0.00, 0.00, 0.00, 0
305213, -31731.34, -35321.86, 0.00, 0.00, 0.00, 0.00, 0.00, 0.00, 0
305214, -31744.75, -35354.02, 0.00, 0.00, 0.00, 0.00, 0.00, 0.00, 0
305215, -31762.97, -35438.60, 0.00, 0.00, 0.00, 0.00, 0.00, 0.00, 0
305216, -31743.99, -35395.21, 0.00, 0.00, 0.00, 0.00, 0.00, 0.00, 0
305217, -31726.49, -35299.48, 0.00, 0.00, 0.00, 0.00, 0.00, 0.00, 0
305218, -31733.84, -35319.78, 0.00, 0.00, 0.00, 0.00, 0.00, 0.00, 0
305219, -31756.69, -35435.63, 0.00, 0.00, 0.00, 0.00, 0.00, 0.00, 0
305220, -31747.34, -35437.06, 0.00, 0.00, 0.00, 0.00, 0.00, 0.00, 0
305221, -31718.00, -35326.80, 0.00, 0.00, 0.00, 0.00, 0.00, 0.00, 0
305222, -31720.72, -35301.63, 0.00, 0.00, 0.00, 0.00, 0.00, 0.00, 0
305223, -31755.08, -35416.02, 0.00, 0.00, 0.00, 0.00, 0.00, 0.00, 0
305224, -31763.53, -35446.76, 0.00, 0.00, 0.00, 0.00, 0.00, 0.00, 0
305225, -31740.62, -35352.75, 0.00, 0.00, 0.00, 0.00, 0.00, 0.00, 0
305226, -31728.57, -35317.99, 0.00, 0.00, 0.00, 0.00, 0.00, 0.00, 0
305227, -31751.41, -35409.05, 0.00, 0.00, 0.00, 0.00, 0.00, 0.00, 0
305228, -31766.83, -35447.54, 0.00, 0.00, 0.00, 0.00, 0.00, 0.00, 0
305229, -31744.53, -35351.54, 0.00, 0.00, 0.00, 0.00, 0.00, 0.00, 0
305230, -31738.13, -35293.11, 0.00, 0.00, 0.00, 0.00, 0.00, 0.00, 0
305231, -31763.44, -35379.55, 0.00, 0.00, 0.00, 0.00, 0.00, 0.00, 0
305232, -31775.84, -35449.13, 0.00, 0.00, 0.00, 0.00, 0.00, 0.00, 0
305233, -31757.18, -35390.23, 0.00, 0.00, 0.00, 0.00, 0.00, 0.00, 0
305234, -31748.93, -35307.98, 0.00, 0.00, 0.00, 0.00, 0.00, 0.00, 0
305235, -31764.26, -35374.47, 0.00, 0.00, 0.00, 0.00, 0.00, 0.00, 0
305236, -31780.96, -35464.93, 0.00, 0.00, 0.00, 0.00, 0.00, 0.00, 0
305237, -31766.95, -35411.73, 0.00, 0.00, 0.00, 0.00, 0.00, 0.00, 0
305238, -31751.86, -35305.96, 0.00, 0.00, 0.00, 0.00, 0.00, 0.00, 0
305239, -31763.91, -35329.79, 0.00, 0.00, 0.00, 0.00, 0.00, 0.00, 0
305240, -31790.37, -35432.63, 0.00, 0.00, 0.00, 0.00, 0.00, 0.00, 0
305241, -31779.04, -35410.86, 0.00, 0.00, 0.00, 0.00, 0.00, 0.00, 0
305242, -31759.30, -35313.88, 0.00, 0.00, 0.00, 0.00, 0.00, 0.00, 0
305243, -31769.18, -35326.95, 0.00, 0.00, 0.00, 0.00, 0.00, 0.00, 0
305244, -31785.88, -35418.95, 0.00, 0.00, 0.00, 0.00, 0.00, 0.00, 0
305245, -31779.24, -35422.57, 0.00, 0.00, 0.00, 0.00, 0.00, 0.00, 0
305246, -31760.98, -35331.04, 0.00, 0.00, 0.00, 0.00, 0.00, 0.00, 0
305247, -31765.11, -35316.67, 0.00, 0.00, 0.00, 0.00, 0.00, 0.00, 0
305248, -31786.33, -35414.13, 0.00, 0.00, 0.00, 0.00, 0.00, 0.00, 0
305249, -31783.02, -35437.28, 0.00, 0.00, 0.00, 0.00, 0.00, 0.00, 0
305250, -31757.83, -35343.88, 0.00, 0.00, 0.00, 0.00, 0.00, 0.00, 0
305251, -31755.88, -35296.40, 0.00, 0.00, 0.00, 0.00, 0.00, 0.00, 0
305252, -31784.98, -35383.17, 0.00, 0.00, 0.00, 0.00, 0.00, 0.00, 0
305253, -31793.84, -35440.46, 0.00, 0.00, 0.00, 0.00, 0.00, 0.00, 0
305254, -31764.94, -35350.27, 0.00, 0.00, 0.00, 0.00, 0.00, 0.00, 0
305255, -31754.05, -35279.86, 0.00, 0.00, 0.00, 0.00, 0.00, 0.00, 0
305256, -31781.65, -35372.15, 0.00, 0.00, 0.00, 0.00, 0.00, 0.00, 0
305257, -31795.53, -35447.45, 0.00, 0.00, 0.00, 0.00, 0.00, 0.00, 0
305258, -31775.28, -35384.40, 0.00, 0.00, 0.00, 0.00, 0.00, 0.00, 0
305259, -31757.40, -35290.92, 0.00, 0.00, 0.00, 0.00, 0.00, 0.00, 0
305260, -31767.51, -35343.61, 0.00, 0.00, 0.00, 0.00, 0.00, 0.00, 0
305261, -31787.98, -35443.88, 0.00, 0.00, 0.00, 0.00, 0.00, 0.00, 0
305262, -31774.84, -35404.80, 0.00, 0.00, 0.00, 0.00, 0.00, 0.00, 0
305263, -31756.55, -35311.82, 0.00, 0.00, 0.00, 0.00, 0.00, 0.00, 0
305264, -31764.82, -35334.24, 0.00, 0.00, 0.00, 0.00, 0.00, 0.00, 0
305265, -31792.94, -35434.13, 0.00, 0.00, 0.00, 0.00, 0.00, 0.00, 0
305266, -31786.21, -35420.83, 0.00, 0.00, 0.00, 0.00, 0.00, 0.00, 0
305267, -31758.68, -35319.98, 0.00, 0.00, 0.00, 0.00, 0.00, 0.00, 0
305268, -31763.26, -35322.35, 0.00, 0.00, 0.00, 0.00, 0.00, 0.00, 0
305269, -31788.38, -35427.27, 0.00, 0.00, 0.00, 0.00, 0.00, 0.00, 0
305270, -31778.08, -35430.13, 0.00, 0.00, 0.00, 0.00, 0.00, 0.00, 0
305271, -31753.98, -35331.89, 0.00, 0.00, 0.00, 0.00, 0.00, 0.00, 0
305272, -31760.04, -35317.16, 0.00, 0.00, 0.00, 0.00, 0.00, 0.00, 0
305273, -31783.60, -35410.53, 0.00, 0.00, 0.00, 0.00, 0.00, 0.00, 0
305274, -31780.85, -35439.70, 0.00, 0.00, 0.00, 0.00, 0.00, 0.00, 0
305275, -31758.07, -35345.66, 0.00, 0.00, 0.00, 0.00, 0.00, 0.00, 0
305276, -31757.11, -35303.93, 0.00, 0.00, 0.00, 0.00, 0.00, 0.00, 0
305277, -31778.35, -35392.64, 0.00, 0.00, 0.00, 0.00, 0.00, 0.00, 0
305278, -31784.69, -35453.04, 0.00, 0.00, 0.00, 0.00, 0.00, 0.00, 0
305279, -31763.08, -35383.48, 0.00, 0.00, 0.00, 0.00, 0.00, 0.00, 0
305280, -31757.94, -35315.51, 0.00, 0.00, 0.00, 0.00, 0.00, 0.00, 0
305281, -31779.98, -35390.68, 0.00, 0.00, 0.00, 0.00, 0.00, 0.00, 0
305282, -31792.14, -35461.33, 0.00, 0.00, 0.00, 0.00, 0.00, 0.00, 0
305283, -31774.10, -35386.54, 0.00, 0.00, 0.00, 0.00, 0.00, 0.00, 0
305284, -31756.55, -35297.80, 0.00, 0.00, 0.00, 0.00, 0.00, 0.00, 0
305285, -31771.53, -35356.05, 0.00, 0.00, 0.00, 0.00, 0.00, 0.00, 0
305286, -31793.59, -35444.79, 0.00, 0.00, 0.00, 0.00, 0.00, 0.00, 0
305287, -31782.26, -35406.86, 0.00, 0.00, 0.00, 0.00, 0.00, 0.00, 0
305288, -31758.99, -35317.92, 0.00, 0.00, 0.00, 0.00, 0.00, 0.00, 0
305289, -31767.44, -35338.64, 0.00, 0.00, 0.00, 0.00, 0.00, 0.00, 0
305290, -31794.48, -35427.87, 0.00, 0.00, 0.00, 0.00, 0.00, 0.00, 0
305291, -31789.68, -35420.12, 0.00, 0.00, 0.00, 0.00, 0.00, 0.00, 0
305292, -31760.89, -35329.81, 0.00, 0.00, 0.00, 0.00, 0.00, 0.00, 0
305293, -31764.69, -35318.10, 0.00, 0.00, 0.00, 0.00, 0.00, 0.00, 0
305294, -31788.92, -35416.65, 0.00, 0.00, 0.00, 0.00, 0.00, 0.00, 0
305295, -31781.38, -35437.66, 0.00, 0.00, 0.00, 0.00, 0.00, 0.00, 0
305296, -31753.76, -35329.25, 0.00, 0.00, 0.00, 0.00, 0.00, 0.00, 0
305297, -31753.47, -35289.49, 0.00, 0.00, 0.00, 0.00, 0.00, 0.00, 0
305298, -31784.56, -35406.08, 0.00, 0.00, 0.00, 0.00, 0.00, 0.00, 0
305299, -31789.19, -35447.88, 0.00, 0.00, 0.00, 0.00, 0.00, 0.00, 0
305300, -31757.22, -35349.06, 0.00, 0.00, 0.00, 0.00, 0.00, 0.00, 0
305301, -31749.31, -35304.51, 0.00, 0.00, 0.00, 0.00, 0.00, 0.00, 0
305302, -31777.00, -35402.08, 0.00, 0.00, 0.00, 0.00, 0.00, 0.00, 0
305303, -31785.65, -35461.33, 0.00, 0.00, 0.00, 0.00, 0.00, 0.00, 0
305304, -31762.45, -35387.48, 0.00, 0.00, 0.00, 0.00, 0.00, 0.00, 0
305305, -31751.43, -35313.05, 0.00, 0.00, 0.00, 0.00, 0.00, 0.00, 0
305306, -31770.84, -35376.20, 0.00, 0.00, 0.00, 0.00, 0.00, 0.00, 0
305307, -31786.24, -35447.43, 0.00, 0.00, 0.00, 0.00, 0.00, 0.00, 0
305308, -31765.87, -35388.31, 0.00, 0.00, 0.00, 0.00, 0.00, 0.00, 0
305309, -31748.10, -35312.22, 0.00, 0.00, 0.00, 0.00, 0.00, 0.00, 0
305310, -31763.19, -35365.40, 0.00, 0.00, 0.00, 0.00, 0.00, 0.00, 0
305311, -31785.45, -35447.65, 0.00, 0.00, 0.00, 0.00, 0.00, 0.00, 0
305312, -31770.25, -35411.55, 0.00, 0.00, 0.00, 0.00, 0.00, 0.00, 0
305313, -31750.43, -35319.96, 0.00, 0.00, 0.00, 0.00, 0.00, 0.00, 0
305314, -31758.74, -35344.81, 0.00, 0.00, 0.00, 0.00, 0.00, 0.00, 0
305315, -31782.37, -35437.91, 0.00, 0.00, 0.00, 0.00, 0.00, 0.00, 0
305316, -31774.93, -35425.66, 0.00, 0.00, 0.00, 0.00, 0.00, 0.00, 0
305317, -31747.84, -35316.47, 0.00, 0.00, 0.00, 0.00, 0.00, 0.00, 0
305318, -31755.10, -35304.45, 0.00, 0.00, 0.00, 0.00, 0.00, 0.00, 0
305319, -31780.85, -35411.22, 0.00, 0.00, 0.00, 0.00, 0.00, 0.00, 0
305320, -31774.12, -35444.25, 0.00, 0.00, 0.00, 0.00, 0.00, 0.00, 0
305321, -31745.71, -35357.93, 0.00, 0.00, 0.00, 0.00, 0.00, 0.00, 0
305322, -31746.43, -35317.16, 0.00, 0.00, 0.00, 0.00, 0.00, 0.00, 0
305323, -31771.48, -35403.24, 0.00, 0.00, 0.00, 0.00, 0.00, 0.00, 0
305324, -31778.14, -35451.88, 0.00, 0.00, 0.00, 0.00, 0.00, 0.00, 0
305325, -31756.06, -35366.25, 0.00, 0.00, 0.00, 0.00, 0.00, 0.00, 0
305326, -31751.43, -35302.50, 0.00, 0.00, 0.00, 0.00, 0.00, 0.00, 0
305327, -31768.67, -35375.30, 0.00, 0.00, 0.00, 0.00, 0.00, 0.00, 0
305328, -31779.31, -35438.29, 0.00, 0.00, 0.00, 0.00, 0.00, 0.00, 0
305329, -31756.04, -35381.16, 0.00, 0.00, 0.00, 0.00, 0.00, 0.00, 0
305330, -31739.19, -35303.24, 0.00, 0.00, 0.00, 0.00, 0.00, 0.00, 0
305331, -31759.77, -35371.43, 0.00, 0.00, 0.00, 0.00, 0.00, 0.00, 0
305332, -31779.75, -35449.06, 0.00, 0.00, 0.00, 0.00, 0.00, 0.00, 0
305333, -31760.64, -35398.50, 0.00, 0.00, 0.00, 0.00, 0.00, 0.00, 0
305334, -31742.98, -35315.78, 0.00, 0.00, 0.00, 0.00, 0.00, 0.00, 0
305335, -31754.92, -35353.02, 0.00, 0.00, 0.00, 0.00, 0.00, 0.00, 0
305336, -31775.82, -35444.28, 0.00, 0.00, 0.00, 0.00, 0.00, 0.00, 0
305337, -31761.96, -35420.92, 0.00, 0.00, 0.00, 0.00, 0.00, 0.00, 0
305338, -31734.51, -35317.01, 0.00, 0.00, 0.00, 0.00, 0.00, 0.00, 0
305339, -31744.53, -35329.52, 0.00, 0.00, 0.00, 0.00, 0.00, 0.00, 0
305340, -31774.84, -35440.72, 0.00, 0.00, 0.00, 0.00, 0.00, 0.00, 0
305341, -31770.93, -35439.94, 0.00, 0.00, 0.00, 0.00, 0.00, 0.00, 0
305342, -31744.04, -35339.43, 0.00, 0.00, 0.00, 0.00, 0.00, 0.00, 0
305343, -31744.42, -35320.56, 0.00, 0.00, 0.00, 0.00, 0.00, 0.00, 0
305344, -31770.23, -35423.96, 0.00, 0.00, 0.00, 0.00, 0.00, 0.00, 0
305345, -31768.22, -35456.50, 0.00, 0.00, 0.00, 0.00, 0.00, 0.00, 0
305346, -31736.30, -35352.88, 0.00, 0.00, 0.00, 0.00, 0.00, 0.00, 0
305347, -31738.43, -35300.60, 0.00, 0.00, 0.00, 0.00, 0.00, 0.00, 0
305348, -31771.64, -35395.26, 0.00, 0.00, 0.00, 0.00, 0.00, 0.00, 0
305349, -31772.94, -35458.56, 0.00, 0.00, 0.00, 0.00, 0.00, 0.00, 0
305350, -31739.39, -35374.59, 0.00, 0.00, 0.00, 0.00, 0.00, 0.00, 0
305351, -31719.78, -35299.50, 0.00, 0.00, 0.00, 0.00, 0.00, 0.00, 0
305352, -31745.94, -35380.53, 0.00, 0.00, 0.00, 0.00, 0.00, 0.00, 0
305353, -31768.13, -35460.80, 0.00, 0.00, 0.00, 0.00, 0.00, 0.00, 0
305354, -31745.76, -35395.15, 0.00, 0.00, 0.00, 0.00, 0.00, 0.00, 0
305355, -31723.90, -35307.75, 0.00, 0.00, 0.00, 0.00, 0.00, 0.00, 0
305356, -31737.44, -35354.89, 0.00, 0.00, 0.00, 0.00, 0.00, 0.00, 0
305357, -31758.12, -35446.89, 0.00, 0.00, 0.00, 0.00, 0.00, 0.00, 0
305358, -31740.53, -35402.73, 0.00, 0.00, 0.00, 0.00, 0.00, 0.00, 0
305359, -31720.88, -35318.59, 0.00, 0.00, 0.00, 0.00, 0.00, 0.00, 0
305360, -31736.79, -35349.33, 0.00, 0.00, 0.00, 0.00, 0.00, 0.00, 0
305361, -31759.06, -35439.72, 0.00, 0.00, 0.00, 0.00, 0.00, 0.00, 0
305362, -31747.23, -35437.15, 0.00, 0.00, 0.00, 0.00, 0.00, 0.00, 0
305363, -31722.94, -35342.67, 0.00, 0.00, 0.00, 0.00, 0.00, 0.00, 0
305364, -31735.83, -35340.10, 0.00, 0.00, 0.00, 0.00, 0.00, 0.00, 0
305365, -31767.71, -35424.30, 0.00, 0.00, 0.00, 0.00, 0.00, 0.00, 0
305366, -31762.19, -35436.34, 0.00, 0.00, 0.00, 0.00, 0.00, 0.00, 0
305367, -31731.07, -35364.39, 0.00, 0.00, 0.00, 0.00, 0.00, 0.00, 0
305368, -31727.50, -35340.54, 0.00, 0.00, 0.00, 0.00, 0.00, 0.00, 0
305369, -31759.39, -35429.88, 0.00, 0.00, 0.00, 0.00, 0.00, 0.00, 0
305370, -31757.49, -35462.83, 0.00, 0.00, 0.00, 0.00, 0.00, 0.00, 0
305371, -31726.58, -35363.75, 0.00, 0.00, 0.00, 0.00, 0.00, 0.00, 0
305372, -31725.28, -35307.73, 0.00, 0.00, 0.00, 0.00, 0.00, 0.00, 0
305373, -31749.74, -35390.86, 0.00, 0.00, 0.00, 0.00, 0.00, 0.00, 0
305374, -31761.25, -35437.97, 0.00, 0.00, 0.00, 0.00, 0.00, 0.00, 0
305375, -31742.65, -35362.18, 0.00, 0.00, 0.00, 0.00, 0.00, 0.00, 0
305376, -31738.87, -35313.61, 0.00, 0.00, 0.00, 0.00, 0.00, 0.00, 0
305377, -31758.97, -35389.14, 0.00, 0.00, 0.00, 0.00, 0.00, 0.00, 0
305378, -31774.43, -35457.27, 0.00, 0.00, 0.00, 0.00, 0.00, 0.00, 0
305379, -31756.82, -35399.42, 0.00, 0.00, 0.00, 0.00, 0.00, 0.00, 0
305380, -31742.40, -35328.94, 0.00, 0.00, 0.00, 0.00, 0.00, 0.00, 0
305381, -31753.89, -35386.18, 0.00, 0.00, 0.00, 0.00, 0.00, 0.00, 0
305382, -31771.62, -35461.46, 0.00, 0.00, 0.00, 0.00, 0.00, 0.00, 0
305383, -31753.83, -35419.63, 0.00, 0.00, 0.00, 0.00, 0.00, 0.00, 0
305384, -31732.19, -35331.27, 0.00, 0.00, 0.00, 0.00, 0.00, 0.00, 0
305385, -31740.93, -35364.84, 0.00, 0.00, 0.00, 0.00, 0.00, 0.00, 0
305386, -31760.87, -35455.61, 0.00, 0.00, 0.00, 0.00, 0.00, 0.00, 0
305387, -31754.65, -35435.94, 0.00, 0.00, 0.00, 0.00, 0.00, 0.00, 0
305388, -31735.14, -35341.62, 0.00, 0.00, 0.00, 0.00, 0.00, 0.00, 0
305389, -31738.13, -35338.75, 0.00, 0.00, 0.00, 0.00, 0.00, 0.00, 0
305390, -31760.58, -35425.75, 0.00, 0.00, 0.00, 0.00, 0.00, 0.00, 0
305391, -31753.76, -35436.66, 0.00, 0.00, 0.00, 0.00, 0.00, 0.00, 0
305392, -31726.98, -35344.16, 0.00, 0.00, 0.00, 0.00, 0.00, 0.00, 0
305393, -31729.82, -35309.79, 0.00, 0.00, 0.00, 0.00, 0.00, 0.00, 0
305394, -31763.82, -35405.59, 0.00, 0.00, 0.00, 0.00, 0.00, 0.00, 0
305395, -31768.13, -35450.89, 0.00, 0.00, 0.00, 0.00, 0.00, 0.00, 0
305396, -31737.38, -35370.74, 0.00, 0.00, 0.00, 0.00, 0.00, 0.00, 0
305397, -31728.17, -35310.48, 0.00, 0.00, 0.00, 0.00, 0.00, 0.00, 0
305398, -31750.88, -35396.69, 0.00, 0.00, 0.00, 0.00, 0.00, 0.00, 0
305399, -31757.74, -35462.29, 0.00, 0.00, 0.00, 0.00, 0.00, 0.00, 0
305400, -31734.42, -35388.53, 0.00, 0.00, 0.00, 0.00, 0.00, 0.00, 0
305401, -31722.89, -35301.63, 0.00, 0.00, 0.00, 0.00, 0.00, 0.00, 0
305402, -31742.52, -35363.61, 0.00, 0.00, 0.00, 0.00, 0.00, 0.00, 0
305403, -31764.96, -35456.97, 0.00, 0.00, 0.00, 0.00, 0.00, 0.00, 0
305404, -31744.97, -35405.14, 0.00, 0.00, 0.00, 0.00, 0.00, 0.00, 0
305405, -31731.29, -35317.81, 0.00, 0.00, 0.00, 0.00, 0.00, 0.00, 0
305406, -31752.60, -35366.76, 0.00, 0.00, 0.00, 0.00, 0.00, 0.00, 0
305407, -31773.83, -35462.54, 0.00, 0.00, 0.00, 0.00, 0.00, 0.00, 0
305408, -31756.71, -35423.04, 0.00, 0.00, 0.00, 0.00, 0.00, 0.00, 0
305409, -31732.90, -35312.43, 0.00, 0.00, 0.00, 0.00, 0.00, 0.00, 0
305410, -31742.70, -35327.51, 0.00, 0.00, 0.00, 0.00, 0.00, 0.00, 0
305411, -31768.35, -35452.28, 0.00, 0.00, 0.00, 0.00, 0.00, 0.00, 0
305412, -31760.06, -35462.47, 0.00, 0.00, 0.00, 0.00, 0.00, 0.00, 0
305413, -31734.09, -35357.22, 0.00, 0.00, 0.00, 0.00, 0.00, 0.00, 0
305414, -31743.59, -35345.28, 0.00, 0.00, 0.00, 0.00, 0.00, 0.00, 0
305415, -31772.24, -35451.25, 0.00, 0.00, 0.00, 0.00, 0.00, 0.00, 0
305416, -31767.21, -35462.38, 0.00, 0.00, 0.00, 0.00, 0.00, 0.00, 0
305417, -31738.85, -35353.33, 0.00, 0.00, 0.00, 0.00, 0.00, 0.00, 0
305418, -31737.46, -35314.19, 0.00, 0.00, 0.00, 0.00, 0.00, 0.00, 0
305419, -31760.11, -35402.88, 0.00, 0.00, 0.00, 0.00, 0.00, 0.00, 0
305420, -31764.76, -35456.79, 0.00, 0.00, 0.00, 0.00, 0.00, 0.00, 0
305421, -31739.45, -35381.27, 0.00, 0.00, 0.00, 0.00, 0.00, 0.00, 0
305422, -31734.94, -35319.46, 0.00, 0.00, 0.00, 0.00, 0.00, 0.00, 0
305423, -31751.70, -35397.76, 0.00, 0.00, 0.00, 0.00, 0.00, 0.00, 0
305424, -31765.87, -35457.22, 0.00, 0.00, 0.00, 0.00, 0.00, 0.00, 0
305425, -31743.05, -35387.79, 0.00, 0.00, 0.00, 0.00, 0.00, 0.00, 0
305426, -31730.56, -35329.41, 0.00, 0.00, 0.00, 0.00, 0.00, 0.00, 0
305427, -31753.76, -35406.97, 0.00, 0.00, 0.00, 0.00, 0.00, 0.00, 0
305428, -31771.35, -35468.60, 0.00, 0.00, 0.00, 0.00, 0.00, 0.00, 0
305429, -31755.81, -35406.73, 0.00, 0.00, 0.00, 0.00, 0.00, 0.00, 0
305430, -31736.44, -35319.44, 0.00, 0.00, 0.00, 0.00, 0.00, 0.00, 0
305431, -31749.15, -35353.80, 0.00, 0.00, 0.00, 0.00, 0.00, 0.00, 0
305432, -31772.24, -35440.43, 0.00, 0.00, 0.00, 0.00, 0.00, 0.00, 0
305433, -31758.99, -35417.05, 0.00, 0.00, 0.00, 0.00, 0.00, 0.00, 0
305434, -31737.84, -35340.92, 0.00, 0.00, 0.00, 0.00, 0.00, 0.00, 0
305435, -31742.02, -35351.16, 0.00, 0.00, 0.00, 0.00, 0.00, 0.00, 0
305436, -31763.64, -35457.73, 0.00, 0.00, 0.00, 0.00, 0.00, 0.00, 0
305437, -31760.35, -35458.58, 0.00, 0.00, 0.00, 0.00, 0.00, 0.00, 0
305438, -31739.01, -35353.37, 0.00, 0.00, 0.00, 0.00, 0.00, 0.00, 0
305439, -31741.13, -35335.85, 0.00, 0.00, 0.00, 0.00, 0.00, 0.00, 0
305440, -31766.23, -35434.98, 0.00, 0.00, 0.00, 0.00, 0.00, 0.00, 0
305441, -31764.11, -35459.79, 0.00, 0.00, 0.00, 0.00, 0.00, 0.00, 0
305442, -31737.02, -35352.19, 0.00, 0.00, 0.00, 0.00, 0.00, 0.00, 0
305443, -31733.80, -35299.95, 0.00, 0.00, 0.00, 0.00, 0.00, 0.00, 0
305444, -31756.80, -35401.52, 0.00, 0.00, 0.00, 0.00, 0.00, 0.00, 0
305445, -31764.02, -35465.64, 0.00, 0.00, 0.00, 0.00, 0.00, 0.00, 0
305446, -31741.02, -35388.15, 0.00, 0.00, 0.00, 0.00, 0.00, 0.00, 0
305447, -31729.93, -35324.79, 0.00, 0.00, 0.00, 0.00, 0.00, 0.00, 0
305448, -31754.74, -35402.30, 0.00, 0.00, 0.00, 0.00, 0.00, 0.00, 0
305449, -31766.34, -35473.38, 0.00, 0.00, 0.00, 0.00, 0.00, 0.00, 0
305450, -31740.35, -35420.27, 0.00, 0.00, 0.00, 0.00, 0.00, 0.00, 0
305451, -31728.84, -35338.15, 0.00, 0.00, 0.00, 0.00, 0.00, 0.00, 0
305452, -31748.21, -35381.63, 0.00, 0.00, 0.00, 0.00, 0.00, 0.00, 0
305453, -31768.13, -35454.49, 0.00, 0.00, 0.00, 0.00, 0.00, 0.00, 0
305454, -31748.57, -35409.92, 0.00, 0.00, 0.00, 0.00, 0.00, 0.00, 0
305455, -31729.19, -35323.27, 0.00, 0.00, 0.00, 0.00, 0.00, 0.00, 0
305456, -31743.70, -35359.81, 0.00, 0.00, 0.00, 0.00, 0.00, 0.00, 0
305457, -31764.87, -35455.10, 0.00, 0.00, 0.00, 0.00, 0.00, 0.00, 0
305458, -31757.83, -35441.08, 0.00, 0.00, 0.00, 0.00, 0.00, 0.00, 0
305459, -31736.37, -35351.61, 0.00, 0.00, 0.00, 0.00, 0.00, 0.00, 0
305460, -31745.06, -35355.03, 0.00, 0.00, 0.00, 0.00, 0.00, 0.00, 0
305461, -31767.51, -35444.43, 0.00, 0.00, 0.00, 0.00, 0.00, 0.00, 0
305462, -31760.67, -35451.30, 0.00, 0.00, 0.00, 0.00, 0.00, 0.00, 0
305463, -31736.62, -35355.59, 0.00, 0.00, 0.00, 0.00, 0.00, 0.00, 0
305464, -31738.16, -35331.27, 0.00, 0.00, 0.00, 0.00, 0.00, 0.00, 0
305465, -31764.82, -35422.98, 0.00, 0.00, 0.00, 0.00, 0.00, 0.00, 0
305466, -31764.49, -35448.66, 0.00, 0.00, 0.00, 0.00, 0.00, 0.00, 0
305467, -31737.62, -35370.16, 0.00, 0.00, 0.00, 0.00, 0.00, 0.00, 0
305468, -31735.07, -35325.23, 0.00, 0.00, 0.00, 0.00, 0.00, 0.00, 0
305469, -31761.56, -35412.16, 0.00, 0.00, 0.00, 0.00, 0.00, 0.00, 0
305470, -31765.38, -35457.42, 0.00, 0.00, 0.00, 0.00, 0.00, 0.00, 0
305471, -31741.91, -35378.43, 0.00, 0.00, 0.00, 0.00, 0.00, 0.00, 0
305472, -31738.04, -35331.74, 0.00, 0.00, 0.00, 0.00, 0.00, 0.00, 0
305473, -31754.32, -35407.93, 0.00, 0.00, 0.00, 0.00, 0.00, 0.00, 0
305474, -31763.44, -35462.20, 0.00, 0.00, 0.00, 0.00, 0.00, 0.00, 0
305475, -31743.97, -35397.94, 0.00, 0.00, 0.00, 0.00, 0.00, 0.00, 0
305476, -31730.33, -35326.42, 0.00, 0.00, 0.00, 0.00, 0.00, 0.00, 0
305477, -31746.83, -35379.66, 0.00, 0.00, 0.00, 0.00, 0.00, 0.00, 0
305478, -31764.62, -35463.93, 0.00, 0.00, 0.00, 0.00, 0.00, 0.00, 0
305479, -31746.43, -35426.71, 0.00, 0.00, 0.00, 0.00, 0.00, 0.00, 0
305480, -31725.86, -35334.84, 0.00, 0.00, 0.00, 0.00, 0.00, 0.00, 0
305481, -31739.34, -35354.85, 0.00, 0.00, 0.00, 0.00, 0.00, 0.00, 0
305482, -31763.64, -35443.59, 0.00, 0.00, 0.00, 0.00, 0.00, 0.00, 0
305483, -31755.39, -35439.29, 0.00, 0.00, 0.00, 0.00, 0.00, 0.00, 0
305484, -31738.89, -35363.12, 0.00, 0.00, 0.00, 0.00, 0.00, 0.00, 0
305485, -31744.57, -35350.22, 0.00, 0.00, 0.00, 0.00, 0.00, 0.00, 0
305486, -31767.88, -35437.53, 0.00, 0.00, 0.00, 0.00, 0.00, 0.00, 0
305487, -31759.06, -35448.32, 0.00, 0.00, 0.00, 0.00, 0.00, 0.00, 0
305488, -31735.38, -35359.09, 0.00, 0.00, 0.00, 0.00, 0.00, 0.00, 0
305489, -31739.97, -35341.39, 0.00, 0.00, 0.00, 0.00, 0.00, 0.00, 0
305490, -31767.06, -35430.35, 0.00, 0.00, 0.00, 0.00, 0.00, 0.00, 0
305491, -31770.97, -35459.43, 0.00, 0.00, 0.00, 0.00, 0.00, 0.00, 0
305492, -31744.88, -35372.51, 0.00, 0.00, 0.00, 0.00, 0.00, 0.00, 0
305493, -31739.90, -35330.30, 0.00, 0.00, 0.00, 0.00, 0.00, 0.00, 0
305494, -31762.63, -35418.53, 0.00, 0.00, 0.00, 0.00, 0.00, 0.00, 0
305495, -31773.47, -35461.73, 0.00, 0.00, 0.00, 0.00, 0.00, 0.00, 0
305496, -31751.01, -35385.47, 0.00, 0.00, 0.00, 0.00, 0.00, 0.00, 0
305497, -31738.67, -35319.60, 0.00, 0.00, 0.00, 0.00, 0.00, 0.00, 0
305498, -31756.13, -35388.13, 0.00, 0.00, 0.00, 0.00, 0.00, 0.00, 0
305499, -31775.62, -35473.16, 0.00, 0.00, 0.00, 0.00, 0.00, 0.00, 0
305500, -31764.55, -35417.66, 0.00, 0.00, 0.00, 0.00, 0.00, 0.00, 0
305501, -31755.70, -35330.89, 0.00, 0.00, 0.00, 0.00, 0.00, 0.00, 0
305502, -31749.71, -35378.96, 0.00, 0.00, 0.00, 0.00, 0.00, 0.00, 0
305503, -31753.31, -35460.35, 0.00, 0.00, 0.00, 0.00, 0.00, 0.00, 0
305504, -31736.64, -35413.30, 0.00, 0.00, 0.00, 0.00, 0.00, 0.00, 0
305505, -31721.15, -35309.54, 0.00, 0.00, 0.00, 0.00, 0.00, 0.00, 0
305506, -31728.72, -35354.36, 0.00, 0.00, 0.00, 0.00, 0.00, 0.00, 0
305507, -31750.94, -35470.43, 0.00, 0.00, 0.00, 0.00, 0.00, 0.00, 0
305508, -31741.40, -35454.38, 0.00, 0.00, 0.00, 0.00, 0.00, 0.00, 0
305509, -31708.70, -35352.84, 0.00, 0.00, 0.00, 0.00, 0.00, 0.00, 0
305510, -31711.71, -35344.23, 0.00, 0.00, 0.00, 0.00, 0.00, 0.00, 0
305511, -31737.40, -35438.06, 0.00, 0.00, 0.00, 0.00, 0.00, 0.00, 0
305512, -31729.55, -35452.05, 0.00, 0.00, 0.00, 0.00, 0.00, 0.00, 0
305513, -31701.84, -35355.36, 0.00, 0.00, 0.00, 0.00, 0.00, 0.00, 0
305514, -31704.47, -35320.72, 0.00, 0.00, 0.00, 0.00, 0.00, 0.00, 0
305515, -31730.63, -35402.46, 0.00, 0.00, 0.00, 0.00, 0.00, 0.00, 0
305516, -31736.97, -35437.44, 0.00, 0.00, 0.00, 0.00, 0.00, 0.00, 0
305517, -31712.41, -35357.98, 0.00, 0.00, 0.00, 0.00, 0.00, 0.00, 0
305518, -31703.98, -35307.11, 0.00, 0.00, 0.00, 0.00, 0.00, 0.00, 0
305519, -31723.09, -35389.83, 0.00, 0.00, 0.00, 0.00, 0.00, 0.00, 0
305520, -31738.67, -35455.03, 0.00, 0.00, 0.00, 0.00, 0.00, 0.00, 0
305521, -31716.61, -35386.77, 0.00, 0.00, 0.00, 0.00, 0.00, 0.00, 0
305522, -31696.65, -35301.79, 0.00, 0.00, 0.00, 0.00, 0.00, 0.00, 0
305523, -31720.57, -35355.72, 0.00, 0.00, 0.00, 0.00, 0.00, 0.00, 0
305524, -31745.42, -35431.43, 0.00, 0.00, 0.00, 0.00, 0.00, 0.00, 0
305525, -31726.27, -35384.57, 0.00, 0.00, 0.00, 0.00, 0.00, 0.00, 0
305526, -31713.26, -35316.70, 0.00, 0.00, 0.00, 0.00, 0.00, 0.00, 0
305527, -31733.91, -35359.92, 0.00, 0.00, 0.00, 0.00, 0.00, 0.00, 0
305528, -31757.54, -35439.96, 0.00, 0.00, 0.00, 0.00, 0.00, 0.00, 0
305529, -31747.66, -35413.07, 0.00, 0.00, 0.00, 0.00, 0.00, 0.00, 0
305530, -31720.05, -35318.01, 0.00, 0.00, 0.00, 0.00, 0.00, 0.00, 0
305531, -31723.92, -35329.75, 0.00, 0.00, 0.00, 0.00, 0.00, 0.00, 0
305532, -31753.13, -35422.39, 0.00, 0.00, 0.00, 0.00, 0.00, 0.00, 0
305533, -31750.21, -35418.73, 0.00, 0.00, 0.00, 0.00, 0.00, 0.00, 0
305534, -31724.48, -35321.95, 0.00, 0.00, 0.00, 0.00, 0.00, 0.00, 0
305535, -31729.28, -35322.68, 0.00, 0.00, 0.00, 0.00, 0.00, 0.00, 0
305536, -31752.17, -35422.30, 0.00, 0.00, 0.00, 0.00, 0.00, 0.00, 0
305537, -31746.12, -35444.08, 0.00, 0.00, 0.00, 0.00, 0.00, 0.00, 0
305538, -31711.87, -35350.36, 0.00, 0.00, 0.00, 0.00, 0.00, 0.00, 0
305539, -31707.16, -35302.43, 0.00, 0.00, 0.00, 0.00, 0.00, 0.00, 0
305540, -31738.40, -35386.48, 0.00, 0.00, 0.00, 0.00, 0.00, 0.00, 0
305541, -31745.15, -35436.34, 0.00, 0.00, 0.00, 0.00, 0.00, 0.00, 0
305542, -31717.55, -35369.71, 0.00, 0.00, 0.00, 0.00, 0.00, 0.00, 0
305543, -31713.10, -35312.67, 0.00, 0.00, 0.00, 0.00, 0.00, 0.00, 0
305544, -31739.45, -35390.05, 0.00, 0.00, 0.00, 0.00, 0.00, 0.00, 0
305545, -31754.09, -35462.25, 0.00, 0.00, 0.00, 0.00, 0.00, 0.00, 0
305546, -31727.67, -35395.93, 0.00, 0.00, 0.00, 0.00, 0.00, 0.00, 0
305547, -31715.78, -35313.32, 0.00, 0.00, 0.00, 0.00, 0.00, 0.00, 0
305548, -31736.68, -35365.84, 0.00, 0.00, 0.00, 0.00, 0.00, 0.00, 0
305549, -31749.60, -35446.89, 0.00, 0.00, 0.00, 0.00, 0.00, 0.00, 0
305550, -31730.65, -35408.05, 0.00, 0.00, 0.00, 0.00, 0.00, 0.00, 0
305551, -31711.02, -35320.11, 0.00, 0.00, 0.00, 0.00, 0.00, 0.00, 0
305552, -31728.84, -35355.56, 0.00, 0.00, 0.00, 0.00, 0.00, 0.00, 0
305553, -31757.45, -35449.17, 0.00, 0.00, 0.00, 0.00, 0.00, 0.00, 0
305554, -31746.67, -35422.17, 0.00, 0.00, 0.00, 0.00, 0.00, 0.00, 0
305555, -31724.14, -35325.86, 0.00, 0.00, 0.00, 0.00, 0.00, 0.00, 0
305556, -31733.60, -35348.55, 0.00, 0.00, 0.00, 0.00, 0.00, 0.00, 0
305557, -31748.35, -35446.16, 0.00, 0.00, 0.00, 0.00, 0.00, 0.00, 0
305558, -31736.97, -35438.49, 0.00, 0.00, 0.00, 0.00, 0.00, 0.00, 0
305559, -31704.70, -35330.44, 0.00, 0.00, 0.00, 0.00, 0.00, 0.00, 0
305560, -31708.52, -35308.63, 0.00, 0.00, 0.00, 0.00, 0.00, 0.00, 0
305561, -31733.42, -35405.77, 0.00, 0.00, 0.00, 0.00, 0.00, 0.00, 0
305562, -31727.67, -35436.32, 0.00, 0.00, 0.00, 0.00, 0.00, 0.00, 0
305563, -31703.20, -35347.09, 0.00, 0.00, 0.00, 0.00, 0.00, 0.00, 0
305564, -31705.41, -35305.50, 0.00, 0.00, 0.00, 0.00, 0.00, 0.00, 0
305565, -31734.80, -35401.72, 0.00, 0.00, 0.00, 0.00, 0.00, 0.00, 0
305566, -31744.26, -35460.48, 0.00, 0.00, 0.00, 0.00, 0.00, 0.00, 0
305567, -31718.29, -35382.86, 0.00, 0.00, 0.00, 0.00, 0.00, 0.00, 0
305568, -31712.52, -35316.96, 0.00, 0.00, 0.00, 0.00, 0.00, 0.00, 0
305569, -31733.64, -35392.62, 0.00, 0.00, 0.00, 0.00, 0.00, 0.00, 0
305570, -31749.78, -35454.94, 0.00, 0.00, 0.00, 0.00, 0.00, 0.00, 0
305571, -31726.80, -35382.88, 0.00, 0.00, 0.00, 0.00, 0.00, 0.00, 0
305572, -31711.80, -35297.11, 0.00, 0.00, 0.00, 0.00, 0.00, 0.00, 0
305573, -31726.60, -35351.61, 0.00, 0.00, 0.00, 0.00, 0.00, 0.00, 0
305574, -31738.56, -35430.98, 0.00, 0.00, 0.00, 0.00, 0.00, 0.00, 0
305575, -31716.50, -35384.24, 0.00, 0.00, 0.00, 0.00, 0.00, 0.00, 0
305576, -31700.85, -35307.35, 0.00, 0.00, 0.00, 0.00, 0.00, 0.00, 0
305577, -31716.99, -35341.93, 0.00, 0.00, 0.00, 0.00, 0.00, 0.00, 0
305578, -31743.23, -35433.91, 0.00, 0.00, 0.00, 0.00, 0.00, 0.00, 0
305579, -31732.48, -35424.77, 0.00, 0.00, 0.00, 0.00, 0.00, 0.00, 0
305580, -31710.11, -35341.26, 0.00, 0.00, 0.00, 0.00, 0.00, 0.00, 0
305581, -31715.49, -35342.49, 0.00, 0.00, 0.00, 0.00, 0.00, 0.00, 0
305582, -31740.06, -35426.75, 0.00, 0.00, 0.00, 0.00, 0.00, 0.00, 0
305583, -31732.53, -35425.79, 0.00, 0.00, 0.00, 0.00, 0.00, 0.00, 0
305584, -31712.36, -35343.61, 0.00, 0.00, 0.00, 0.00, 0.00, 0.00, 0
305585, -31711.63, -35316.74, 0.00, 0.00, 0.00, 0.00, 0.00, 0.00, 0
305586, -31733.75, -35413.07, 0.00, 0.00, 0.00, 0.00, 0.00, 0.00, 0
305587, -31735.83, -35453.38, 0.00, 0.00, 0.00, 0.00, 0.00, 0.00, 0
305588, -31709.48, -35365.27, 0.00, 0.00, 0.00, 0.00, 0.00, 0.00, 0
305589, -31703.78, -35321.28, 0.00, 0.00, 0.00, 0.00, 0.00, 0.00, 0
305590, -31729.93, -35413.23, 0.00, 0.00, 0.00, 0.00, 0.00, 0.00, 0
305591, -31738.54, -35462.07, 0.00, 0.00, 0.00, 0.00, 0.00, 0.00, 0
305592, -31708.77, -35373.73, 0.00, 0.00, 0.00, 0.00, 0.00, 0.00, 0
305593, -31696.45, -35301.05, 0.00, 0.00, 0.00, 0.00, 0.00, 0.00, 0
305594, -31720.83, -35368.44, 0.00, 0.00, 0.00, 0.00, 0.00, 0.00, 0
305595, -31737.06, -35451.48, 0.00, 0.00, 0.00, 0.00, 0.00, 0.00, 0
305596, -31718.82, -35399.71, 0.00, 0.00, 0.00, 0.00, 0.00, 0.00, 0
305597, -31706.24, -35313.61, 0.00, 0.00, 0.00, 0.00, 0.00, 0.00, 0
305598, -31726.82, -35356.26, 0.00, 0.00, 0.00, 0.00, 0.00, 0.00, 0
305599, -31747.43, -35440.63, 0.00, 0.00, 0.00, 0.00, 0.00, 0.00, 0
305600, -31726.56, -35400.73, 0.00, 0.00, 0.00, 0.00, 0.00, 0.00, 0
305601, -31702.37, -35306.08, 0.00, 0.00, 0.00, 0.00, 0.00, 0.00, 0
305602, -31717.26, -35340.90, 0.00, 0.00, 0.00, 0.00, 0.00, 0.00, 0
305603, -31744.62, -35446.31, 0.00, 0.00, 0.00, 0.00, 0.00, 0.00, 0
305604, -31737.02, -35433.62, 0.00, 0.00, 0.00, 0.00, 0.00, 0.00, 0
305605, -31713.84, -35326.17, 0.00, 0.00, 0.00, 0.00, 0.00, 0.00, 0
305606, -31725.51, -35316.31, 0.00, 0.00, 0.00, 0.00, 0.00, 0.00, 0
305607, -31757.04, -35404.65, 0.00, 0.00, 0.00, 0.00, 0.00, 0.00, 0
305608, -31743.90, -35414.13, 0.00, 0.00, 0.00, 0.00, 0.00, 0.00, 0
305609, -31704.70, -35323.67, 0.00, 0.00, 0.00, 0.00, 0.00, 0.00, 0
305610, -31696.63, -35309.18, 0.00, 0.00, 0.00, 0.00, 0.00, 0.00, 0
305611, -31718.22, -35427.76, 0.00, 0.00, 0.00, 0.00, 0.00, 0.00, 0
305612, -31714.26, -35471.48, 0.00, 0.00, 0.00, 0.00, 0.00, 0.00, 0
305613, -31681.21, -35368.53, 0.00, 0.00, 0.00, 0.00, 0.00, 0.00, 0
305614, -31669.58, -35307.73, 0.00, 0.00, 0.00, 0.00, 0.00, 0.00, 0
305615, -31693.07, -35388.80, 0.00, 0.00, 0.00, 0.00, 0.00, 0.00, 0
305616, -31707.36, -35439.16, 0.00, 0.00, 0.00, 0.00, 0.00, 0.00, 0
305617, -31686.97, -35371.41, 0.00, 0.00, 0.00, 0.00, 0.00, 0.00, 0
305618, -31679.21, -35315.69, 0.00, 0.00, 0.00, 0.00, 0.00, 0.00, 0
305619, -31700.00, -35381.29, 0.00, 0.00, 0.00, 0.00, 0.00, 0.00, 0
305620, -31715.04, -35454.52, 0.00, 0.00, 0.00, 0.00, 0.00, 0.00, 0
305621, -31694.79, -35389.49, 0.00, 0.00, 0.00, 0.00, 0.00, 0.00, 0
305622, -31675.82, -35300.94, 0.00, 0.00, 0.00, 0.00, 0.00, 0.00, 0
305623, -31689.56, -35352.99, 0.00, 0.00, 0.00, 0.00, 0.00, 0.00, 0
305624, -31711.87, -35454.98, 0.00, 0.00, 0.00, 0.00, 0.00, 0.00, 0
305625, -31695.87, -35426.11, 0.00, 0.00, 0.00, 0.00, 0.00, 0.00, 0
305626, -31673.02, -35327.98, 0.00, 0.00, 0.00, 0.00, 0.00, 0.00, 0
305627, -31691.24, -35340.54, 0.00, 0.00, 0.00, 0.00, 0.00, 0.00, 0
305628, -31718.85, -35435.45, 0.00, 0.00, 0.00, 0.00, 0.00, 0.00, 0
305629, -31707.87, -35432.03, 0.00, 0.00, 0.00, 0.00, 0.00, 0.00, 0
305630, -31683.69, -35336.09, 0.00, 0.00, 0.00, 0.00, 0.00, 0.00, 0
305631, -31688.38, -35325.63, 0.00, 0.00, 0.00, 0.00, 0.00, 0.00, 0
305632, -31710.69, -35409.52, 0.00, 0.00, 0.00, 0.00, 0.00, 0.00, 0
305633, -31710.13, -35415.31, 0.00, 0.00, 0.00, 0.00, 0.00, 0.00, 0
305634, -31688.27, -35332.12, 0.00, 0.00, 0.00, 0.00, 0.00, 0.00, 0
305635, -31687.73, -35307.60, 0.00, 0.00, 0.00, 0.00, 0.00, 0.00, 0
305636, -31717.86, -35406.08, 0.00, 0.00, 0.00, 0.00, 0.00, 0.00, 0
305637, -31724.97, -35455.05, 0.00, 0.00, 0.00, 0.00, 0.00, 0.00, 0
305638, -31698.95, -35363.34, 0.00, 0.00, 0.00, 0.00, 0.00, 0.00, 0
305639, -31692.13, -35297.80, 0.00, 0.00, 0.00, 0.00, 0.00, 0.00, 0
305640, -31716.21, -35378.63, 0.00, 0.00, 0.00, 0.00, 0.00, 0.00, 0
305641, -31725.86, -35444.52, 0.00, 0.00, 0.00, 0.00, 0.00, 0.00, 0
305642, -31698.73, -35380.73, 0.00, 0.00, 0.00, 0.00, 0.00, 0.00, 0
305643, -31686.32, -35308.76, 0.00, 0.00, 0.00, 0.00, 0.00, 0.00, 0
305644, -31706.44, -35378.14, 0.00, 0.00, 0.00, 0.00, 0.00, 0.00, 0
305645, -31728.66, -35448.73, 0.00, 0.00, 0.00, 0.00, 0.00, 0.00, 0
305646, -31713.59, -35389.45, 0.00, 0.00, 0.00, 0.00, 0.00, 0.00, 0
305647, -31694.26, -35300.87, 0.00, 0.00, 0.00, 0.00, 0.00, 0.00, 0
305648, -31703.85, -35343.14, 0.00, 0.00, 0.00, 0.00, 0.00, 0.00, 0
305649, -31725.80, -35440.19, 0.00, 0.00, 0.00, 0.00, 0.00, 0.00, 0
305650, -31712.16, -35406.21, 0.00, 0.00, 0.00, 0.00, 0.00, 0.00, 0
305651, -31686.10, -35313.72, 0.00, 0.00, 0.00, 0.00, 0.00, 0.00, 0
305652, -31690.88, -35340.52, 0.00, 0.00, 0.00, 0.00, 0.00, 0.00, 0
305653, -31722.13, -35445.82, 0.00, 0.00, 0.00, 0.00, 0.00, 0.00, 0
305654, -31716.81, -35440.39, 0.00, 0.00, 0.00, 0.00, 0.00, 0.00, 0
305655, -31686.01, -35329.66, 0.00, 0.00, 0.00, 0.00, 0.00, 0.00, 0
305656, -31687.44, -35306.95, 0.00, 0.00, 0.00, 0.00, 0.00, 0.00, 0
305657, -31714.02, -35403.06, 0.00, 0.00, 0.00, 0.00, 0.00, 0.00, 0
305658, -31712.41, -35422.53, 0.00, 0.00, 0.00, 0.00, 0.00, 0.00, 0
305659, -31684.89, -35322.46, 0.00, 0.00, 0.00, 0.00, 0.00, 0.00, 0
305660, -31680.40, -35289.40, 0.00, 0.00, 0.00, 0.00, 0.00, 0.00, 0
305661, -31704.32, -35392.96, 0.00, 0.00, 0.00, 0.00, 0.00, 0.00, 0
305662, -31714.42, -35458.92, 0.00, 0.00, 0.00, 0.00, 0.00, 0.00, 0
305663, -31684.40, -35374.12, 0.00, 0.00, 0.00, 0.00, 0.00, 0.00, 0
305664, -31676.15, -35306.25, 0.00, 0.00, 0.00, 0.00, 0.00, 0.00, 0
305665, -31704.74, -35393.63, 0.00, 0.00, 0.00, 0.00, 0.00, 0.00, 0
305666, -31724.10, -35458.94, 0.00, 0.00, 0.00, 0.00, 0.00, 0.00, 0
305667, -31704.58, -35389.94, 0.00, 0.00, 0.00, 0.00, 0.00, 0.00, 0
305668, -31681.41, -35308.63, 0.00, 0.00, 0.00, 0.00, 0.00, 0.00, 0
305669, -31692.38, -35365.46, 0.00, 0.00, 0.00, 0.00, 0.00, 0.00, 0
305670, -31716.28, -35446.31, 0.00, 0.00, 0.00, 0.00, 0.00, 0.00, 0
305671, -31702.55, -35405.27, 0.00, 0.00, 0.00, 0.00, 0.00, 0.00, 0
305672, -31683.22, -35316.47, 0.00, 0.00, 0.00, 0.00, 0.00, 0.00, 0
305673, -31699.18, -35339.47, 0.00, 0.00, 0.00, 0.00, 0.00, 0.00, 0
305674, -31726.20, -35430.26, 0.00, 0.00, 0.00, 0.00, 0.00, 0.00, 0
305675, -31716.10, -35424.00, 0.00, 0.00, 0.00, 0.00, 0.00, 0.00, 0
305676, -31695.46, -35331.98, 0.00, 0.00, 0.00, 0.00, 0.00, 0.00, 0
305677, -31701.66, -35333.84, 0.00, 0.00, 0.00, 0.00, 0.00, 0.00, 0
305678, -31724.48, -35432.48, 0.00, 0.00, 0.00, 0.00, 0.00, 0.00, 0
305679, -31721.59, -35445.06, 0.00, 0.00, 0.00, 0.00, 0.00, 0.00, 0
305680, -31699.85, -35349.02, 0.00, 0.00, 0.00, 0.00, 0.00, 0.00, 0
305681, -31703.11, -35328.50, 0.00, 0.00, 0.00, 0.00, 0.00, 0.00, 0
305682, -31727.12, -35419.71, 0.00, 0.00, 0.00, 0.00, 0.00, 0.00, 0
305683, -31733.11, -35452.04, 0.00, 0.00, 0.00, 0.00, 0.00, 0.00, 0
305684, -31709.95, -35375.97, 0.00, 0.00, 0.00, 0.00, 0.00, 0.00, 0
305685, -31703.80, -35337.55, 0.00, 0.00, 0.00, 0.00, 0.00, 0.00, 0
305686, -31725.73, -35416.27, 0.00, 0.00, 0.00, 0.00, 0.00, 0.00, 0
305687, -31731.23, -35457.35, 0.00, 0.00, 0.00, 0.00, 0.00, 0.00, 0
305688, -31704.76, -35372.24, 0.00, 0.00, 0.00, 0.00, 0.00, 0.00, 0
305689, -31691.58, -35300.49, 0.00, 0.00, 0.00, 0.00, 0.00, 0.00, 0
305690, -31707.94, -35370.79, 0.00, 0.00, 0.00, 0.00, 0.00, 0.00, 0
305691, -31724.52, -35448.05, 0.00, 0.00, 0.00, 0.00, 0.00, 0.00, 0
305692, -31706.15, -35388.02, 0.00, 0.00, 0.00, 0.00, 0.00, 0.00, 0
305693, -31698.21, -35305.38, 0.00, 0.00, 0.00, 0.00, 0.00, 0.00, 0
305694, -31720.28, -35346.55, 0.00, 0.00, 0.00, 0.00, 0.00, 0.00, 0
305695, -31739.65, -35435.61, 0.00, 0.00, 0.00, 0.00, 0.00, 0.00, 0
305696, -31713.19, -35415.64, 0.00, 0.00, 0.00, 0.00, 0.00, 0.00, 0
305697, -31690.66, -35322.77, 0.00, 0.00, 0.00, 0.00, 0.00, 0.00, 0
305698, -31708.12, -35339.27, 0.00, 0.00, 0.00, 0.00, 0.00, 0.00, 0
305699, -31743.23, -35428.45, 0.00, 0.00, 0.00, 0.00, 0.00, 0.00, 0
305700, -31741.58, -35437.57, 0.00, 0.00, 0.00, 0.00, 0.00, 0.00, 0
305701, -31717.50, -35354.02, 0.00, 0.00, 0.00, 0.00, 0.00, 0.00, 0
305702, -31721.46, -35338.57, 0.00, 0.00, 0.00, 0.00, 0.00, 0.00, 0
305703, -31747.28, -35433.77, 0.00, 0.00, 0.00, 0.00, 0.00, 0.00, 0
305704, -31740.82, -35451.70, 0.00, 0.00, 0.00, 0.00, 0.00, 0.00, 0
305705, -31711.69, -35360.13, 0.00, 0.00, 0.00, 0.00, 0.00, 0.00, 0
305706, -31714.46, -35334.24, 0.00, 0.00, 0.00, 0.00, 0.00, 0.00, 0
305707, -31742.38, -35424.12, 0.00, 0.00, 0.00, 0.00, 0.00, 0.00, 0
305708, -31742.52, -35456.21, 0.00, 0.00, 0.00, 0.00, 0.00, 0.00, 0
305709, -31710.20, -35367.10, 0.00, 0.00, 0.00, 0.00, 0.00, 0.00, 0
305710, -31704.07, -35313.68, 0.00, 0.00, 0.00, 0.00, 0.00, 0.00, 0
305711, -31731.85, -35393.00, 0.00, 0.00, 0.00, 0.00, 0.00, 0.00, 0
305712, -31743.43, -35442.80, 0.00, 0.00, 0.00, 0.00, 0.00, 0.00, 0
305713, -31718.82, -35359.23, 0.00, 0.00, 0.00, 0.00, 0.00, 0.00, 0
305714, -31708.14, -35293.54, 0.00, 0.00, 0.00, 0.00, 0.00, 0.00, 0
305715, -31722.20, -35361.75, 0.00, 0.00, 0.00, 0.00, 0.00, 0.00, 0
305716, -31734.85, -35427.60, 0.00, 0.00, 0.00, 0.00, 0.00, 0.00, 0
305717, -31718.38, -35387.48, 0.00, 0.00, 0.00, 0.00, 0.00, 0.00, 0
305718, -31697.28, -35304.29, 0.00, 0.00, 0.00, 0.00, 0.00, 0.00, 0
305719, -31712.27, -35326.26, 0.00, 0.00, 0.00, 0.00, 0.00, 0.00, 0
305720, -31736.57, -35425.95, 0.00, 0.00, 0.00, 0.00, 0.00, 0.00, 0
305721, -31720.75, -35406.97, 0.00, 0.00, 0.00, 0.00, 0.00, 0.00, 0
305722, -31697.70, -35326.46, 0.00, 0.00, 0.00, 0.00, 0.00, 0.00, 0
305723, -31708.59, -35339.70, 0.00, 0.00, 0.00, 0.00, 0.00, 0.00, 0
305724, -31735.45, -35421.61, 0.00, 0.00, 0.00, 0.00, 0.00, 0.00, 0
305725, -31724.19, -35407.04, 0.00, 0.00, 0.00, 0.00, 0.00, 0.00, 0
305726, -31696.65, -35312.04, 0.00, 0.00, 0.00, 0.00, 0.00, 0.00, 0
305727, -31701.75, -35308.42, 0.00, 0.00, 0.00, 0.00, 0.00, 0.00, 0
305728, -31729.08, -35421.75, 0.00, 0.00, 0.00, 0.00, 0.00, 0.00, 0
305729, -31723.72, -35448.34, 0.00, 0.00, 0.00, 0.00, 0.00, 0.00, 0
305730, -31693.25, -35341.08, 0.00, 0.00, 0.00, 0.00, 0.00, 0.00, 0
305731, -31690.30, -35307.35, 0.00, 0.00, 0.00, 0.00, 0.00, 0.00, 0
305732, -31715.72, -35413.01, 0.00, 0.00, 0.00, 0.00, 0.00, 0.00, 0
305733, -31721.33, -35460.57, 0.00, 0.00, 0.00, 0.00, 0.00, 0.00, 0
305734, -31698.86, -35370.50, 0.00, 0.00, 0.00, 0.00, 0.00, 0.00, 0
305735, -31695.96, -35318.41, 0.00, 0.00, 0.00, 0.00, 0.00, 0.00, 0
305736, -31715.02, -35408.22, 0.00, 0.00, 0.00, 0.00, 0.00, 0.00, 0
305737, -31732.03, -35467.37, 0.00, 0.00, 0.00, 0.00, 0.00, 0.00, 0
305738, -31718.17, -35394.50, 0.00, 0.00, 0.00, 0.00, 0.00, 0.00, 0
305739, -31703.20, -35315.33, 0.00, 0.00, 0.00, 0.00, 0.00, 0.00, 0
305740, -31720.12, -35371.05, 0.00, 0.00, 0.00, 0.00, 0.00, 0.00, 0
305741, -31740.21, -35446.49, 0.00, 0.00, 0.00, 0.00, 0.00, 0.00, 0
305742, -31723.36, -35392.80, 0.00, 0.00, 0.00, 0.00, 0.00, 0.00, 0
305743, -31704.00, -35301.76, 0.00, 0.00, 0.00, 0.00, 0.00, 0.00, 0
305744, -31717.15, -35344.61, 0.00, 0.00, 0.00, 0.00, 0.00, 0.00, 0
305745, -31735.92, -35439.34, 0.00, 0.00, 0.00, 0.00, 0.00, 0.00, 0
305746, -31732.37, -35408.56, 0.00, 0.00, 0.00, 0.00, 0.00, 0.00, 0
305747, -31717.06, -35308.76, 0.00, 0.00, 0.00, 0.00, 0.00, 0.00, 0
305748, -31728.79, -35325.75, 0.00, 0.00, 0.00, 0.00, 0.00, 0.00, 0
305749, -31750.41, -35409.16, 0.00, 0.00, 0.00, 0.00, 0.00, 0.00, 0
305750, -31732.19, -35341.55, 0.00, 0.00, 0.00, 0.00, 0.00, 0.00, 0
305751, -31715.83, -35255.94, 0.00, 0.00, 0.00, 0.00, 0.00, 0.00, 0
305752, -31734.92, -35327.64, 0.00, 0.00, 0.00, 0.00, 0.00, 0.00, 0
305753, -31766.48, -35457.62, 0.00, 0.00, 0.00, 0.00, 0.00, 0.00, 0
305754, -31759.03, -35465.91, 0.00, 0.00, 0.00, 0.00, 0.00, 0.00, 0
305755, -31722.82, -35366.47, 0.00, 0.00, 0.00, 0.00, 0.00, 0.00, 0
305756, -31718.98, -35340.05, 0.00, 0.00, 0.00, 0.00, 0.00, 0.00, 0
305757, -31746.05, -35430.46, 0.00, 0.00, 0.00, 0.00, 0.00, 0.00, 0
305758, -31750.76, -35473.56, 0.00, 0.00, 0.00, 0.00, 0.00, 0.00, 0
305759, -31722.13, -35384.89, 0.00, 0.00, 0.00, 0.00, 0.00, 0.00, 0
305760, -31709.30, -35314.57, 0.00, 0.00, 0.00, 0.00, 0.00, 0.00, 0
305761, -31723.74, -35387.44, 0.00, 0.00, 0.00, 0.00, 0.00, 0.00, 0
305762, -31730.94, -35453.31, 0.00, 0.00, 0.00, 0.00, 0.00, 0.00, 0
305763, -31705.72, -35382.18, 0.00, 0.00, 0.00, 0.00, 0.00, 0.00, 0
305764, -31690.91, -35301.88, 0.00, 0.00, 0.00, 0.00, 0.00, 0.00, 0
305765, -31704.58, -35363.95, 0.00, 0.00, 0.00, 0.00, 0.00, 0.00, 0
305766, -31724.81, -35447.27, 0.00, 0.00, 0.00, 0.00, 0.00, 0.00, 0
305767, -31707.94, -35393.16, 0.00, 0.00, 0.00, 0.00, 0.00, 0.00, 0
305768, -31687.02, -35288.73, 0.00, 0.00, 0.00, 0.00, 0.00, 0.00, 0
305769, -31696.49, -35309.03, 0.00, 0.00, 0.00, 0.00, 0.00, 0.00, 0
305770, -31715.72, -35396.67, 0.00, 0.00, 0.00, 0.00, 0.00, 0.00, 0
305771, -31696.65, -35373.00, 0.00, 0.00, 0.00, 0.00, 0.00, 0.00, 0
305772, -31670.99, -35288.11, 0.00, 0.00, 0.00, 0.00, 0.00, 0.00, 0
305773, -31679.46, -35322.08, 0.00, 0.00, 0.00, 0.00, 0.00, 0.00, 0
305774, -31703.69, -35436.70, 0.00, 0.00, 0.00, 0.00, 0.00, 0.00, 0
305775, -31692.11, -35437.82, 0.00, 0.00, 0.00, 0.00, 0.00, 0.00, 0
305776, -31660.11, -35312.58, 0.00, 0.00, 0.00, 0.00, 0.00, 0.00, 0
305777, -31657.20, -35297.96, 0.00, 0.00, 0.00, 0.00, 0.00, 0.00, 0
305778, -31683.91, -35435.74, 0.00, 0.00, 0.00, 0.00, 0.00, 0.00, 0
305779, -31687.60, -35473.13, 0.00, 0.00, 0.00, 0.00, 0.00, 0.00, 0
305780, -31659.97, -35358.20, 0.00, 0.00, 0.00, 0.00, 0.00, 0.00, 0
305781, -31651.61, -35321.50, 0.00, 0.00, 0.00, 0.00, 0.00, 0.00, 0
305782, -31666.81, -35423.67, 0.00, 0.00, 0.00, 0.00, 0.00, 0.00, 0
305783, -31669.49, -35471.14, 0.00, 0.00, 0.00, 0.00, 0.00, 0.00, 0
305784, -31650.94, -35362.94, 0.00, 0.00, 0.00, 0.00, 0.00, 0.00, 0
305785, -31636.26, -35292.00, 0.00, 0.00, 0.00, 0.00, 0.00, 0.00, 0
305786, -31648.41, -35384.87, 0.00, 0.00, 0.00, 0.00, 0.00, 0.00, 0
305787, -31663.23, -35462.36, 0.00, 0.00, 0.00, 0.00, 0.00, 0.00, 0
305788, -31644.12, -35381.40, 0.00, 0.00, 0.00, 0.00, 0.00, 0.00, 0
305789, -31618.42, -35289.47, 0.00, 0.00, 0.00, 0.00, 0.00, 0.00, 0
305790, -31627.09, -35350.38, 0.00, 0.00, 0.00, 0.00, 0.00, 0.00, 0
305791, -31648.37, -35430.35, 0.00, 0.00, 0.00, 0.00, 0.00, 0.00, 0
305792, -31631.27, -35362.16, 0.00, 0.00, 0.00, 0.00, 0.00, 0.00, 0
305793, -31600.65, -35265.89, 0.00, 0.00, 0.00, 0.00, 0.00, 0.00, 0
305794, -31607.98, -35334.73, 0.00, 0.00, 0.00, 0.00, 0.00, 0.00, 0
305795, -31628.07, -35468.91, 0.00, 0.00, 0.00, 0.00, 0.00, 0.00, 0
305796, -31616.36, -35437.62, 0.00, 0.00, 0.00, 0.00, 0.00, 0.00, 0
305797, -31586.39, -35301.43, 0.00, 0.00, 0.00, 0.00, 0.00, 0.00, 0
305798, -31580.60, -35306.39, 0.00, 0.00, 0.00, 0.00, 0.00, 0.00, 0
305799, -31594.46, -35414.46, 0.00, 0.00, 0.00, 0.00, 0.00, 0.00, 0
305800, -31592.65, -35409.10, 0.00, 0.00, 0.00, 0.00, 0.00, 0.00, 0
305801, -31564.48, -35311.87, 0.00, 0.00, 0.00, 0.00, 0.00, 0.00, 0
305802, -31560.86, -35315.69, 0.00, 0.00, 0.00, 0.00, 0.00, 0.00, 0
305803, -31587.17, -35430.62, 0.00, 0.00, 0.00, 0.00, 0.00, 0.00, 0
305804, -31591.46, -35455.68, 0.00, 0.00, 0.00, 0.00, 0.00, 0.00, 0
305805, -31554.16, -35338.98, 0.00, 0.00, 0.00, 0.00, 0.00, 0.00, 0
305806, -31545.87, -35290.09, 0.00, 0.00, 0.00, 0.00, 0.00, 0.00, 0
305807, -31567.59, -35394.93, 0.00, 0.00, 0.00, 0.00, 0.00, 0.00, 0
305808, -31579.19, -35443.25, 0.00, 0.00, 0.00, 0.00, 0.00, 0.00, 0
305809, -31554.65, -35340.39, 0.00, 0.00, 0.00, 0.00, 0.00, 0.00, 0
305810, -31535.00, -35272.59, 0.00, 0.00, 0.00, 0.00, 0.00, 0.00, 0
305811, -31548.44, -35382.63, 0.00, 0.00, 0.00, 0.00, 0.00, 0.00, 0
305812, -31568.46, -35470.23, 0.00, 0.00, 0.00, 0.00, 0.00, 0.00, 0
305813, -31547.68, -35375.86, 0.00, 0.00, 0.00, 0.00, 0.00, 0.00, 0
305814, -31525.57, -35280.62, 0.00, 0.00, 0.00, 0.00, 0.00, 0.00, 0
305815, -31531.67, -35350.73, 0.00, 0.00, 0.00, 0.00, 0.00, 0.00, 0
305816, -31555.21, -35449.29, 0.00, 0.00, 0.00, 0.00, 0.00, 0.00, 0
305817, -31541.80, -35395.95, 0.00, 0.00, 0.00, 0.00, 0.00, 0.00, 0
305818, -31512.96, -35292.69, 0.00, 0.00, 0.00, 0.00, 0.00, 0.00, 0
305819, -31520.67, -35331.49, 0.00, 0.00, 0.00, 0.00, 0.00, 0.00, 0
305820, -31549.62, -35434.31, 0.00, 0.00, 0.00, 0.00, 0.00, 0.00, 0
305821, -31545.15, -35403.44, 0.00, 0.00, 0.00, 0.00, 0.00, 0.00, 0
305822, -31517.01, -35293.43, 0.00, 0.00, 0.00, 0.00, 0.00, 0.00, 0
305823, -31518.84, -35310.75, 0.00, 0.00, 0.00, 0.00, 0.00, 0.00, 0
305824, -31549.08, -35425.19, 0.00, 0.00, 0.00, 0.00, 0.00, 0.00, 0
305825, -31549.08, -35414.59, 0.00, 0.00, 0.00, 0.00, 0.00, 0.00, 0
305826, -31519.51, -35303.19, 0.00, 0.00, 0.00, 0.00, 0.00, 0.00, 0
305827, -31512.54, -35288.60, 0.00, 0.00, 0.00, 0.00, 0.00, 0.00, 0
305828, -31534.49, -35392.33, 0.00, 0.00, 0.00, 0.00, 0.00, 0.00, 0
305829, -31550.89, -35428.72, 0.00, 0.00, 0.00, 0.00, 0.00, 0.00, 0
305830, -31527.04, -35344.50, 0.00, 0.00, 0.00, 0.00, 0.00, 0.00, 0
305831, -31508.78, -35292.42, 0.00, 0.00, 0.00, 0.00, 0.00, 0.00, 0
305832, -31530.80, -35376.24, 0.00, 0.00, 0.00, 0.00, 0.00, 0.00, 0
305833, -31547.01, -35429.08, 0.00, 0.00, 0.00, 0.00, 0.00, 0.00, 0
305834, -31529.39, -35353.21, 0.00, 0.00, 0.00, 0.00, 0.00, 0.00, 0
305835, -31515.89, -35280.91, 0.00, 0.00, 0.00, 0.00, 0.00, 0.00, 0
305836, -31532.70, -35355.34, 0.00, 0.00, 0.00, 0.00, 0.00, 0.00, 0
305837, -31555.68, -35446.18, 0.00, 0.00, 0.00, 0.00, 0.00, 0.00, 0
305838, -31541.44, -35395.68, 0.00, 0.00, 0.00, 0.00, 0.00, 0.00, 0
305839, -31530.11, -35307.35, 0.00, 0.00, 0.00, 0.00, 0.00, 0.00, 0
305840, -31550.40, -35339.16, 0.00, 0.00, 0.00, 0.00, 0.00, 0.00, 0
305841, -31571.86, -35421.46, 0.00, 0.00, 0.00, 0.00, 0.00, 0.00, 0
305842, -31562.47, -35395.55, 0.00, 0.00, 0.00, 0.00, 0.00, 0.00, 0
305843, -31547.83, -35301.63, 0.00, 0.00, 0.00, 0.00, 0.00, 0.00, 0
305844, -31571.77, -35311.57, 0.00, 0.00, 0.00, 0.00, 0.00, 0.00, 0
305845, -31604.81, -35405.74, 0.00, 0.00, 0.00, 0.00, 0.00, 0.00, 0
305846, -31598.01, -35409.27, 0.00, 0.00, 0.00, 0.00, 0.00, 0.00, 0
305847, -31574.54, -35322.50, 0.00, 0.00, 0.00, 0.00, 0.00, 0.00, 0
305848, -31592.33, -35320.89, 0.00, 0.00, 0.00, 0.00, 0.00, 0.00, 0
305849, -31623.72, -35417.43, 0.00, 0.00, 0.00, 0.00, 0.00, 0.00, 0
305850, -31627.99, -35438.49, 0.00, 0.00, 0.00, 0.00, 0.00, 0.00, 0
305851, -31601.88, -35340.39, 0.00, 0.00, 0.00, 0.00, 0.00, 0.00, 0
305852, -31606.97, -35288.22, 0.00, 0.00, 0.00, 0.00, 0.00, 0.00, 0
305853, -31632.95, -35369.36, 0.00, 0.00, 0.00, 0.00, 0.00, 0.00, 0
305854, -31642.98, -35431.40, 0.00, 0.00, 0.00, 0.00, 0.00, 0.00, 0
305855, -31625.28, -35363.30, 0.00, 0.00, 0.00, 0.00, 0.00, 0.00, 0
305856, -31618.26, -35304.94, 0.00, 0.00, 0.00, 0.00, 0.00, 0.00, 0
305857, -31647.65, -35380.15, 0.00, 0.00, 0.00, 0.00, 0.00, 0.00, 0
305858, -31667.03, -35437.44, 0.00, 0.00, 0.00, 0.00, 0.00, 0.00, 0
305859, -31643.63, -35375.08, 0.00, 0.00, 0.00, 0.00, 0.00, 0.00, 0
305860, -31633.91, -35299.55, 0.00, 0.00, 0.00, 0.00, 0.00, 0.00, 0
305861, -31655.63, -35355.30, 0.00, 0.00, 0.00, 0.00, 0.00, 0.00, 0
305862, -31676.24, -35449.57, 0.00, 0.00, 0.00, 0.00, 0.00, 0.00, 0
305863, -31658.09, -35404.18, 0.00, 0.00, 0.00, 0.00, 0.00, 0.00, 0
305864, -31641.75, -35306.70, 0.00, 0.00, 0.00, 0.00, 0.00, 0.00, 0
305865, -31657.27, -35332.68, 0.00, 0.00, 0.00, 0.00, 0.00, 0.00, 0
305866, -31682.21, -35426.53, 0.00, 0.00, 0.00, 0.00, 0.00, 0.00, 0
305867, -31672.11, -35417.28, 0.00, 0.00, 0.00, 0.00, 0.00, 0.00, 0
305868, -31653.06, -35321.30, 0.00, 0.00, 0.00, 0.00, 0.00, 0.00, 0
305869, -31664.38, -35328.25, 0.00, 0.00, 0.00, 0.00, 0.00, 0.00, 0
305870, -31688.04, -35415.62, 0.00, 0.00, 0.00, 0.00, 0.00, 0.00, 0
305871, -31681.23, -35425.55, 0.00, 0.00, 0.00, 0.00, 0.00, 0.00, 0
305872, -31657.69, -35339.38, 0.00, 0.00, 0.00, 0.00, 0.00, 0.00, 0
305873, -31662.45, -35309.86, 0.00, 0.00, 0.00, 0.00, 0.00, 0.00, 0
305874, -31691.51, -35407.71, 0.00, 0.00, 0.00, 0.00, 0.00, 0.00, 0
305875, -31691.80, -35438.71, 0.00, 0.00, 0.00, 0.00, 0.00, 0.00, 0
305876, -31671.10, -35341.93, 0.00, 0.00, 0.00, 0.00, 0.00, 0.00, 0
305877, -31669.18, -35286.72, 0.00, 0.00, 0.00, 0.00, 0.00, 0.00, 0
305878, -31691.96, -35370.98, 0.00, 0.00, 0.00, 0.00, 0.00, 0.00, 0
305879, -31704.27, -35431.67, 0.00, 0.00, 0.00, 0.00, 0.00, 0.00, 0
305880, -31681.74, -35365.35, 0.00, 0.00, 0.00, 0.00, 0.00, 0.00, 0
305881, -31673.63, -35305.05, 0.00, 0.00, 0.00, 0.00, 0.00, 0.00, 0
305882, -31695.02, -35378.07, 0.00, 0.00, 0.00, 0.00, 0.00, 0.00, 0
305883, -31709.81, -35460.32, 0.00, 0.00, 0.00, 0.00, 0.00, 0.00, 0
305884, -31688.07, -35401.54, 0.00, 0.00, 0.00, 0.00, 0.00, 0.00, 0
305885, -31672.46, -35318.59, 0.00, 0.00, 0.00, 0.00, 0.00, 0.00, 0
305886, -31688.74, -35371.21, 0.00, 0.00, 0.00, 0.00, 0.00, 0.00, 0
305887, -31713.30, -35453.73, 0.00, 0.00, 0.00, 0.00, 0.00, 0.00, 0
305888, -31702.46, -35405.96, 0.00, 0.00, 0.00, 0.00, 0.00, 0.00, 0
305889, -31683.11, -35298.12, 0.00, 0.00, 0.00, 0.00, 0.00, 0.00, 0
305890, -31694.24, -35304.04, 0.00, 0.00, 0.00, 0.00, 0.00, 0.00, 0
305891, -31718.82, -35409.61, 0.00, 0.00, 0.00, 0.00, 0.00, 0.00, 0
305892, -31704.09, -35417.88, 0.00, 0.00, 0.00, 0.00, 0.00, 0.00, 0
305893, -31678.59, -35339.09, 0.00, 0.00, 0.00, 0.00, 0.00, 0.00, 0
305894, -31685.88, -35342.24, 0.00, 0.00, 0.00, 0.00, 0.00, 0.00, 0
305895, -31711.18, -35434.64, 0.00, 0.00, 0.00, 0.00, 0.00, 0.00, 0
305896, -31704.52, -35435.80, 0.00, 0.00, 0.00, 0.00, 0.00, 0.00, 0
305897, -31679.84, -35330.60, 0.00, 0.00, 0.00, 0.00, 0.00, 0.00, 0
305898, -31686.53, -35287.97, 0.00, 0.00, 0.00, 0.00, 0.00, 0.00, 0
305899, -31712.81, -35381.18, 0.00, 0.00, 0.00, 0.00, 0.00, 0.00, 0
305900, -31719.96, -35421.16, 0.00, 0.00, 0.00, 0.00, 0.00, 0.00, 0
305901, -31698.71, -35344.93, 0.00, 0.00, 0.00, 0.00, 0.00, 0.00, 0
305902, -31696.56, -35305.03, 0.00, 0.00, 0.00, 0.00, 0.00, 0.00, 0
305903, -31717.17, -35398.32, 0.00, 0.00, 0.00, 0.00, 0.00, 0.00, 0
305904, -31726.27, -35453.35, 0.00, 0.00, 0.00, 0.00, 0.00, 0.00, 0
305905, -31703.29, -35380.13, 0.00, 0.00, 0.00, 0.00, 0.00, 0.00, 0
305906, -31690.93, -35306.05, 0.00, 0.00, 0.00, 0.00, 0.00, 0.00, 0
305907, -31707.09, -35368.44, 0.00, 0.00, 0.00, 0.00, 0.00, 0.00, 0
305908, -31718.24, -35435.80, 0.00, 0.00, 0.00, 0.00, 0.00, 0.00, 0
305909, -31699.27, -35362.67, 0.00, 0.00, 0.00, 0.00, 0.00, 0.00, 0
305910, -31679.95, -35268.66, 0.00, 0.00, 0.00, 0.00, 0.00, 0.00, 0
305911, -31700.85, -35332.05, 0.00, 0.00, 0.00, 0.00, 0.00, 0.00, 0
305912, -31730.24, -35437.28, 0.00, 0.00, 0.00, 0.00, 0.00, 0.00, 0
305913, -31715.22, -35398.39, 0.00, 0.00, 0.00, 0.00, 0.00, 0.00, 0
305914, -31686.10, -35295.44, 0.00, 0.00, 0.00, 0.00, 0.00, 0.00, 0
305915, -31692.40, -35319.15, 0.00, 0.00, 0.00, 0.00, 0.00, 0.00, 0
305916, -31719.83, -35435.76, 0.00, 0.00, 0.00, 0.00, 0.00, 0.00, 0
305917, -31713.44, -35441.84, 0.00, 0.00, 0.00, 0.00, 0.00, 0.00, 0
305918, -31690.23, -35335.96, 0.00, 0.00, 0.00, 0.00, 0.00, 0.00, 0
305919, -31695.89, -35332.32, 0.00, 0.00, 0.00, 0.00, 0.00, 0.00, 0
305920, -31721.62, -35434.38, 0.00, 0.00, 0.00, 0.00, 0.00, 0.00, 0
305921, -31722.13, -35431.67, 0.00, 0.00, 0.00, 0.00, 0.00, 0.00, 0
305922, -31695.58, -35315.69, 0.00, 0.00, 0.00, 0.00, 0.00, 0.00, 0
305923, -31697.30, -35299.64, 0.00, 0.00, 0.00, 0.00, 0.00, 0.00, 0
305924, -31723.58, -35422.30, 0.00, 0.00, 0.00, 0.00, 0.00, 0.00, 0
305925, -31732.64, -35460.68, 0.00, 0.00, 0.00, 0.00, 0.00, 0.00, 0
305926, -31709.46, -35349.68, 0.00, 0.00, 0.00, 0.00, 0.00, 0.00, 0
305927, -31700.07, -35290.61, 0.00, 0.00, 0.00, 0.00, 0.00, 0.00, 0
305928, -31721.51, -35388.44, 0.00, 0.00, 0.00, 0.00, 0.00, 0.00, 0
305929, -31731.61, -35455.66, 0.00, 0.00, 0.00, 0.00, 0.00, 0.00, 0
305930, -31710.69, -35370.72, 0.00, 0.00, 0.00, 0.00, 0.00, 0.00, 0
305931, -31696.56, -35286.74, 0.00, 0.00, 0.00, 0.00, 0.00, 0.00, 0
305932, -31713.19, -35357.31, 0.00, 0.00, 0.00, 0.00, 0.00, 0.00, 0
305933, -31731.32, -35458.61, 0.00, 0.00, 0.00, 0.00, 0.00, 0.00, 0
305934, -31716.52, -35407.82, 0.00, 0.00, 0.00, 0.00, 0.00, 0.00, 0
305935, -31697.77, -35307.35, 0.00, 0.00, 0.00, 0.00, 0.00, 0.00, 0
305936, -31710.69, -35353.44, 0.00, 0.00, 0.00, 0.00, 0.00, 0.00, 0
305937, -31737.73, -35443.92, 0.00, 0.00, 0.00, 0.00, 0.00, 0.00, 0
305938, -31726.47, -35401.74, 0.00, 0.00, 0.00, 0.00, 0.00, 0.00, 0
305939, -31699.82, -35301.70, 0.00, 0.00, 0.00, 0.00, 0.00, 0.00, 0
305940, -31708.00, -35318.15, 0.00, 0.00, 0.00, 0.00, 0.00, 0.00, 0
305941, -31738.07, -35421.86, 0.00, 0.00, 0.00, 0.00, 0.00, 0.00, 0
305942, -31737.35, -35403.42, 0.00, 0.00, 0.00, 0.00, 0.00, 0.00, 0
305943, -31710.73, -35285.56, 0.00, 0.00, 0.00, 0.00, 0.00, 0.00, 0
305944, -31720.72, -35302.93, 0.00, 0.00, 0.00, 0.00, 0.00, 0.00, 0
305945, -31734.98, -35426.33, 0.00, 0.00, 0.00, 0.00, 0.00, 0.00, 0
305946, -31728.57, -35438.20, 0.00, 0.00, 0.00, 0.00, 0.00, 0.00, 0
305947, -31711.63, -35337.13, 0.00, 0.00, 0.00, 0.00, 0.00, 0.00, 0
305948, -31715.16, -35306.88, 0.00, 0.00, 0.00, 0.00, 0.00, 0.00, 0
305949, -31743.32, -35400.20, 0.00, 0.00, 0.00, 0.00, 0.00, 0.00, 0
305950, -31755.23, -35449.11, 0.00, 0.00, 0.00, 0.00, 0.00, 0.00, 0
305951, -31730.74, -35358.65, 0.00, 0.00, 0.00, 0.00, 0.00, 0.00, 0
305952, -31727.70, -35293.89, 0.00, 0.00, 0.00, 0.00, 0.00, 0.00, 0
305953, -31755.81, -35381.89, 0.00, 0.00, 0.00, 0.00, 0.00, 0.00, 0
305954, -31774.32, -35464.84, 0.00, 0.00, 0.00, 0.00, 0.00, 0.00, 0
305955, -31759.95, -35401.50, 0.00, 0.00, 0.00, 0.00, 0.00, 0.00, 0
305956, -31745.38, -35318.23, 0.00, 0.00, 0.00, 0.00, 0.00, 0.00, 0
305957, -31759.64, -35379.84, 0.00, 0.00, 0.00, 0.00, 0.00, 0.00, 0
305958, -31781.88, -35461.46, 0.00, 0.00, 0.00, 0.00, 0.00, 0.00, 0
305959, -31762.59, -35393.00, 0.00, 0.00, 0.00, 0.00, 0.00, 0.00, 0
305960, -31737.38, -35288.24, 0.00, 0.00, 0.00, 0.00, 0.00, 0.00, 0
305961, -31749.94, -35337.68, 0.00, 0.00, 0.00, 0.00, 0.00, 0.00, 0
305962, -31773.74, -35452.91, 0.00, 0.00, 0.00, 0.00, 0.00, 0.00, 0
305963, -31766.05, -35428.88, 0.00, 0.00, 0.00, 0.00, 0.00, 0.00, 0
305964, -31743.03, -35322.06, 0.00, 0.00, 0.00, 0.00, 0.00, 0.00, 0
305965, -31750.81, -35333.26, 0.00, 0.00, 0.00, 0.00, 0.00, 0.00, 0
305966, -31778.97, -35439.85, 0.00, 0.00, 0.00, 0.00, 0.00, 0.00, 0
305967, -31776.04, -35439.56, 0.00, 0.00, 0.00, 0.00, 0.00, 0.00, 0
305968, -31748.13, -35329.66, 0.00, 0.00, 0.00, 0.00, 0.00, 0.00, 0
305969, -31753.20, -35321.99, 0.00, 0.00, 0.00, 0.00, 0.00, 0.00, 0
305970, -31776.51, -35427.63, 0.00, 0.00, 0.00, 0.00, 0.00, 0.00, 0
305971, -31778.46, -35451.79, 0.00, 0.00, 0.00, 0.00, 0.00, 0.00, 0
305972, -31754.25, -35348.55, 0.00, 0.00, 0.00, 0.00, 0.00, 0.00, 0
305973, -31743.46, -35295.39, 0.00, 0.00, 0.00, 0.00, 0.00, 0.00, 0
305974, -31765.31, -35395.08, 0.00, 0.00, 0.00, 0.00, 0.00, 0.00, 0
305975, -31776.78, -35450.78, 0.00, 0.00, 0.00, 0.00, 0.00, 0.00, 0
305976, -31749.91, -35370.94, 0.00, 0.00, 0.00, 0.00, 0.00, 0.00, 0
305977, -31737.80, -35315.06, 0.00, 0.00, 0.00, 0.00, 0.00, 0.00, 0
305978, -31761.89, -35391.37, 0.00, 0.00, 0.00, 0.00, 0.00, 0.00, 0
305979, -31781.18, -35468.77, 0.00, 0.00, 0.00, 0.00, 0.00, 0.00, 0
305980, -31756.82, -35402.70, 0.00, 0.00, 0.00, 0.00, 0.00, 0.00, 0
305981, -31739.97, -35312.60, 0.00, 0.00, 0.00, 0.00, 0.00, 0.00, 0
305982, -31756.57, -35365.38, 0.00, 0.00, 0.00, 0.00, 0.00, 0.00, 0
305983, -31783.71, -35462.52, 0.00, 0.00, 0.00, 0.00, 0.00, 0.00, 0
305984, -31766.12, -35415.31, 0.00, 0.00, 0.00, 0.00, 0.00, 0.00, 0
305985, -31743.23, -35314.23, 0.00, 0.00, 0.00, 0.00, 0.00, 0.00, 0
305986, -31750.52, -35345.35, 0.00, 0.00, 0.00, 0.00, 0.00, 0.00, 0
305987, -31777.27, -35452.12, 0.00, 0.00, 0.00, 0.00, 0.00, 0.00, 0
305988, -31763.19, -35427.20, 0.00, 0.00, 0.00, 0.00, 0.00, 0.00, 0
305989, -31736.84, -35315.44, 0.00, 0.00, 0.00, 0.00, 0.00, 0.00, 0
305990, -31743.97, -35329.48, 0.00, 0.00, 0.00, 0.00, 0.00, 0.00, 0
305991, -31773.21, -35444.16, 0.00, 0.00, 0.00, 0.00, 0.00, 0.00, 0
305992, -31768.55, -35444.41, 0.00, 0.00, 0.00, 0.00, 0.00, 0.00, 0
305993, -31737.62, -35317.90, 0.00, 0.00, 0.00, 0.00, 0.00, 0.00, 0
305994, -31743.21, -35309.34, 0.00, 0.00, 0.00, 0.00, 0.00, 0.00, 0
305995, -31774.30, -35432.36, 0.00, 0.00, 0.00, 0.00, 0.00, 0.00, 0
305996, -31777.52, -35446.42, 0.00, 0.00, 0.00, 0.00, 0.00, 0.00, 0
305997, -31746.09, -35341.21, 0.00, 0.00, 0.00, 0.00, 0.00, 0.00, 0
305998, -31743.25, -35302.14, 0.00, 0.00, 0.00, 0.00, 0.00, 0.00, 0
305999, -31778.81, -35399.24, 0.00, 0.00, 0.00, 0.00, 0.00, 0.00, 0
306000, -31786.39, -35439.27, 0.00, 0.00, 0.00, 0.00, 0.00, 0.00, 0
306001, -31761.02, -35355.36, 0.00, 0.00, 0.00, 0.00, 0.00, 0.00, 0
306002, -31752.42, -35309.92, 0.00, 0.00, 0.00, 0.00, 0.00, 0.00, 0
306003, -31776.18, -35397.47, 0.00, 0.00, 0.00, 0.00, 0.00, 0.00, 0
306004, -31796.50, -35470.70, 0.00, 0.00, 0.00, 0.00, 0.00, 0.00, 0
306005, -31781.65, -35411.62, 0.00, 0.00, 0.00, 0.00, 0.00, 0.00, 0
306006, -31764.53, -35325.48, 0.00, 0.00, 0.00, 0.00, 0.00, 0.00, 0
306007, -31784.54, -35371.99, 0.00, 0.00, 0.00, 0.00, 0.00, 0.00, 0
306008, -31807.60, -35455.99, 0.00, 0.00, 0.00, 0.00, 0.00, 0.00, 0
306009, -31786.21, -35414.75, 0.00, 0.00, 0.00, 0.00, 0.00, 0.00, 0
306010, -31763.86, -35315.93, 0.00, 0.00, 0.00, 0.00, 0.00, 0.00, 0
306011, -31786.01, -35336.39, 0.00, 0.00, 0.00, 0.00, 0.00, 0.00, 0
306012, -31814.38, -35423.07, 0.00, 0.00, 0.00, 0.00, 0.00, 0.00, 0
306013, -31801.19, -35415.89, 0.00, 0.00, 0.00, 0.00, 0.00, 0.00, 0
306014, -31772.45, -35331.67, 0.00, 0.00, 0.00, 0.00, 0.00, 0.00, 0
306015, -31774.79, -35336.07, 0.00, 0.00, 0.00, 0.00, 0.00, 0.00, 0
306016, -31799.78, -35423.27, 0.00, 0.00, 0.00, 0.00, 0.00, 0.00, 0
306017, -31797.81, -35420.63, 0.00, 0.00, 0.00, 0.00, 0.00, 0.00, 0
306018, -31771.06, -35324.36, 0.00, 0.00, 0.00, 0.00, 0.00, 0.00, 0
306019, -31770.57, -35311.26, 0.00, 0.00, 0.00, 0.00, 0.00, 0.00, 0
306020, -31796.63, -35415.98, 0.00, 0.00, 0.00, 0.00, 0.00, 0.00, 0
306021, -31800.85, -35460.75, 0.00, 0.00, 0.00, 0.00, 0.00, 0.00, 0
306022, -31775.71, -35374.41, 0.00, 0.00, 0.00, 0.00, 0.00, 0.00, 0
306023, -31766.43, -35315.33, 0.00, 0.00, 0.00, 0.00, 0.00, 0.00, 0
306024, -31789.34, -35383.66, 0.00, 0.00, 0.00, 0.00, 0.00, 0.00, 0
306025, -31800.34, -35434.04, 0.00, 0.00, 0.00, 0.00, 0.00, 0.00, 0
306026, -31770.14, -35363.86, 0.00, 0.00, 0.00, 0.00, 0.00, 0.00, 0
306027, -31758.61, -35300.60, 0.00, 0.00, 0.00, 0.00, 0.00, 0.00, 0
306028, -31775.26, -35366.52, 0.00, 0.00, 0.00, 0.00, 0.00, 0.00, 0
306029, -31789.52, -35443.99, 0.00, 0.00, 0.00, 0.00, 0.00, 0.00, 0
306030, -31776.07, -35390.99, 0.00, 0.00, 0.00, 0.00, 0.00, 0.00, 0
306031, -31762.97, -35296.06, 0.00, 0.00, 0.00, 0.00, 0.00, 0.00, 0
306032, -31774.54, -35351.99, 0.00, 0.00, 0.00, 0.00, 0.00, 0.00, 0
306033, -31798.78, -35467.28, 0.00, 0.00, 0.00, 0.00, 0.00, 0.00, 0
306034, -31780.63, -35432.92, 0.00, 0.00, 0.00, 0.00, 0.00, 0.00, 0
306035, -31753.60, -35324.83, 0.00, 0.00, 0.00, 0.00, 0.00, 0.00, 0
306036, -31763.21, -35344.41, 0.00, 0.00, 0.00, 0.00, 0.00, 0.00, 0
306037, -31792.16, -35439.41, 0.00, 0.00, 0.00, 0.00, 0.00, 0.00, 0
306038, -31782.86, -35419.36, 0.00, 0.00, 0.00, 0.00, 0.00, 0.00, 0
306039, -31752.17, -35316.54, 0.00, 0.00, 0.00, 0.00, 0.00, 0.00, 0
306040, -31755.50, -35311.22, 0.00, 0.00, 0.00, 0.00, 0.00, 0.00, 0
306041, -31783.46, -35428.65, 0.00, 0.00, 0.00, 0.00, 0.00, 0.00, 0
306042, -31784.34, -35458.74, 0.00, 0.00, 0.00, 0.00, 0.00, 0.00, 0
306043, -31757.74, -35348.19, 0.00, 0.00, 0.00, 0.00, 0.00, 0.00, 0
306044, -31755.21, -35306.73, 0.00, 0.00, 0.00, 0.00, 0.00, 0.00, 0
306045, -31780.09, -35408.76, 0.00, 0.00, 0.00, 0.00, 0.00, 0.00, 0
306046, -31786.08, -35451.81, 0.00, 0.00, 0.00, 0.00, 0.00, 0.00, 0
306047, -31762.34, -35353.55, 0.00, 0.00, 0.00, 0.00, 0.00, 0.00, 0
306048, -31752.71, -35303.77, 0.00, 0.00, 0.00, 0.00, 0.00, 0.00, 0
306049, -31779.42, -35397.63, 0.00, 0.00, 0.00, 0.00, 0.00, 0.00, 0
306050, -31792.92, -35458.05, 0.00, 0.00, 0.00, 0.00, 0.00, 0.00, 0
306051, -31768.80, -35370.72, 0.00, 0.00, 0.00, 0.00, 0.00, 0.00, 0
306052, -31752.48, -35292.42, 0.00, 0.00, 0.00, 0.00, 0.00, 0.00, 0
306053, -31772.71, -35369.96, 0.00, 0.00, 0.00, 0.00, 0.00, 0.00, 0
306054, -31791.98, -35455.52, 0.00, 0.00, 0.00, 0.00, 0.00, 0.00, 0
306055, -31774.03, -35387.77, 0.00, 0.00, 0.00, 0.00, 0.00, 0.00, 0
306056, -31757.98, -35306.70, 0.00, 0.00, 0.00, 0.00, 0.00, 0.00, 0
306057, -31778.03, -35369.67, 0.00, 0.00, 0.00, 0.00, 0.00, 0.00, 0
306058, -31807.18, -35455.86, 0.00, 0.00, 0.00, 0.00, 0.00, 0.00, 0
306059, -31791.20, -35411.20, 0.00, 0.00, 0.00, 0.00, 0.00, 0.00, 0
306060, -31763.73, -35322.17, 0.00, 0.00, 0.00, 0.00, 0.00, 0.00, 0
306061, -31776.13, -35345.44, 0.00, 0.00, 0.00, 0.00, 0.00, 0.00, 0
306062, -31804.72, -35444.86, 0.00, 0.00, 0.00, 0.00, 0.00, 0.00, 0
306063, -31792.49, -35428.70, 0.00, 0.00, 0.00, 0.00, 0.00, 0.00, 0
306064, -31762.68, -35318.75, 0.00, 0.00, 0.00, 0.00, 0.00, 0.00, 0
306065, -31770.23, -35308.65, 0.00, 0.00, 0.00, 0.00, 0.00, 0.00, 0
306066, -31795.40, -35431.29, 0.00, 0.00, 0.00, 0.00, 0.00, 0.00, 0
306067, -31800.32, -35475.37, 0.00, 0.00, 0.00, 0.00, 0.00, 0.00, 0
306068, -31775.71, -35368.50, 0.00, 0.00, 0.00, 0.00, 0.00, 0.00, 0
306069, -31771.24, -35319.09, 0.00, 0.00, 0.00, 0.00, 0.00, 0.00, 0
306070, -31798.28, -35410.84, 0.00, 0.00, 0.00, 0.00, 0.00, 0.00, 0
306071, -31805.73, -35453.04, 0.00, 0.00, 0.00, 0.00, 0.00, 0.00, 0
306072, -31774.05, -35369.78, 0.00, 0.00, 0.00, 0.00, 0.00, 0.00, 0
306073, -31762.90, -35316.58, 0.00, 0.00, 0.00, 0.00, 0.00, 0.00, 0
306074, -31785.72, -35392.02, 0.00, 0.00, 0.00, 0.00, 0.00, 0.00, 0
306075, -31797.01, -35447.36, 0.00, 0.00, 0.00, 0.00, 0.00, 0.00, 0
306076, -31770.08, -35376.75, 0.00, 0.00, 0.00, 0.00, 0.00, 0.00, 0
306077, -31751.17, -35308.11, 0.00, 0.00, 0.00, 0.00, 0.00, 0.00, 0
306078, -31768.82, -35379.99, 0.00, 0.00, 0.00, 0.00, 0.00, 0.00, 0
306079, -31795.96, -35469.96, 0.00, 0.00, 0.00, 0.00, 0.00, 0.00, 0
306080, -31780.02, -35413.41, 0.00, 0.00, 0.00, 0.00, 0.00, 0.00, 0
306081, -31755.05, -35306.01, 0.00, 0.00, 0.00, 0.00, 0.00, 0.00, 0
306082, -31764.76, -35333.32, 0.00, 0.00, 0.00, 0.00, 0.00, 0.00, 0
306083, -31789.88, -35431.52, 0.00, 0.00, 0.00, 0.00, 0.00, 0.00, 0
306084, -31783.87, -35431.02, 0.00, 0.00, 0.00, 0.00, 0.00, 0.00, 0
306085, -31760.02, -35335.45, 0.00, 0.00, 0.00, 0.00, 0.00, 0.00, 0
306086, -31768.22, -35338.31, 0.00, 0.00, 0.00, 0.00, 0.00, 0.00, 0
306087, -31797.43, -35430.80, 0.00, 0.00, 0.00, 0.00, 0.00, 0.00, 0
306088, -31793.61, -35438.42, 0.00, 0.00, 0.00, 0.00, 0.00, 0.00, 0
306089, -31764.38, -35341.77, 0.00, 0.00, 0.00, 0.00, 0.00, 0.00, 0
306090, -31764.71, -35326.75, 0.00, 0.00, 0.00, 0.00, 0.00, 0.00, 0
306091, -31790.26, -35425.37, 0.00, 0.00, 0.00, 0.00, 0.00, 0.00, 0
306092, -31791.69, -35456.39, 0.00, 0.00, 0.00, 0.00, 0.00, 0.00, 0
306093, -31763.82, -35358.00, 0.00, 0.00, 0.00, 0.00, 0.00, 0.00, 0
306094, -31762.48, -35305.32, 0.00, 0.00, 0.00, 0.00, 0.00, 0.00, 0
306095, -31790.97, -35405.30, 0.00, 0.00, 0.00, 0.00, 0.00, 0.00, 0
306096, -31800.47, -35467.01, 0.00, 0.00, 0.00, 0.00, 0.00, 0.00, 0
306097, -31768.89, -35374.34, 0.00, 0.00, 0.00, 0.00, 0.00, 0.00, 0
306098, -31756.53, -35299.15, 0.00, 0.00, 0.00, 0.00, 0.00, 0.00, 0
306099, -31781.99, -35383.91, 0.00, 0.00, 0.00, 0.00, 0.00, 0.00, 0
306100, -31799.69, -35467.81, 0.00, 0.00, 0.00, 0.00, 0.00, 0.00, 0
306101, -31776.02, -35388.38, 0.00, 0.00, 0.00, 0.00, 0.00, 0.00, 0
306102, -31756.11, -35298.68, 0.00, 0.00, 0.00, 0.00, 0.00, 0.00, 0
306103, -31772.47, -35356.43, 0.00, 0.00, 0.00, 0.00, 0.00, 0.00, 0
306104, -31793.99, -35444.55, 0.00, 0.00, 0.00, 0.00, 0.00, 0.00, 0
306105, -31778.39, -35404.74, 0.00, 0.00, 0.00, 0.00, 0.00, 0.00, 0
306106, -31760.20, -35323.58, 0.00, 0.00, 0.00, 0.00, 0.00, 0.00, 0
306107, -31773.67, -35358.78, 0.00, 0.00, 0.00, 0.00, 0.00, 0.00, 0
306108, -31797.97, -35457.20, 0.00, 0.00, 0.00, 0.00, 0.00, 0.00, 0
306109, -31790.26, -35438.15, 0.00, 0.00, 0.00, 0.00, 0.00, 0.00, 0
306110, -31764.20, -35331.09, 0.00, 0.00, 0.00, 0.00, 0.00, 0.00, 0
306111, -31770.75, -35337.88, 0.00, 0.00, 0.00, 0.00, 0.00, 0.00, 0
306112, -31794.39, -35442.64, 0.00, 0.00, 0.00, 0.00, 0.00, 0.00, 0
306113, -31790.39, -35444.37, 0.00, 0.00, 0.00, 0.00, 0.00, 0.00, 0
306114, -31762.65, -35334.69, 0.00, 0.00, 0.00, 0.00, 0.00, 0.00, 0
306115, -31763.55, -35318.06, 0.00, 0.00, 0.00, 0.00, 0.00, 0.00, 0
306116, -31794.51, -35432.12, 0.00, 0.00, 0.00, 0.00, 0.00, 0.00, 0
306117, -31791.85, -35459.63, 0.00, 0.00, 0.00, 0.00, 0.00, 0.00, 0
306118, -31759.46, -35355.65, 0.00, 0.00, 0.00, 0.00, 0.00, 0.00, 0
306119, -31759.10, -35314.46, 0.00, 0.00, 0.00, 0.00, 0.00, 0.00, 0
306120, -31784.34, -35408.76, 0.00, 0.00, 0.00, 0.00, 0.00, 0.00, 0
306121, -31791.38, -35458.67, 0.00, 0.00, 0.00, 0.00, 0.00, 0.00, 0
306122, -31763.53, -35368.26, 0.00, 0.00, 0.00, 0.00, 0.00, 0.00, 0
306123, -31749.62, -35292.04, 0.00, 0.00, 0.00, 0.00, 0.00, 0.00, 0
306124, -31768.89, -35379.64, 0.00, 0.00, 0.00, 0.00, 0.00, 0.00, 0
306125, -31783.98, -35465.58, 0.00, 0.00, 0.00, 0.00, 0.00, 0.00, 0
306126, -31765.67, -35392.71, 0.00, 0.00, 0.00, 0.00, 0.00, 0.00, 0
306127, -31751.55, -35304.33, 0.00, 0.00, 0.00, 0.00, 0.00, 0.00, 0
306128, -31770.75, -35357.62, 0.00, 0.00, 0.00, 0.00, 0.00, 0.00, 0
306129, -31794.04, -35449.15, 0.00, 0.00, 0.00, 0.00, 0.00, 0.00, 0
306130, -31778.41, -35405.14, 0.00, 0.00, 0.00, 0.00, 0.00, 0.00, 0
306131, -31756.53, -35303.62, 0.00, 0.00, 0.00, 0.00, 0.00, 0.00, 0
306132, -31764.26, -35333.12, 0.00, 0.00, 0.00, 0.00, 0.00, 0.00, 0
306133, -31789.92, -35441.37, 0.00, 0.00, 0.00, 0.00, 0.00, 0.00, 0
306134, -31785.50, -35434.84, 0.00, 0.00, 0.00, 0.00, 0.00, 0.00, 0
306135, -31762.88, -35341.17, 0.00, 0.00, 0.00, 0.00, 0.00, 0.00, 0
306136, -31763.82, -35333.99, 0.00, 0.00, 0.00, 0.00, 0.00, 0.00, 0
306137, -31790.44, -35432.99, 0.00, 0.00, 0.00, 0.00, 0.00, 0.00, 0
306138, -31793.25, -35448.95, 0.00, 0.00, 0.00, 0.00, 0.00, 0.00, 0
306139, -31770.32, -35350.20, 0.00, 0.00, 0.00, 0.00, 0.00, 0.00, 0
306140, -31773.09, -35319.71, 0.00, 0.00, 0.00, 0.00, 0.00, 0.00, 0
306141, -31796.16, -35421.01, 0.00, 0.00, 0.00, 0.00, 0.00, 0.00, 0
306142, -31794.71, -35458.67, 0.00, 0.00, 0.00, 0.00, 0.00, 0.00, 0
306143, -31768.85, -35363.07, 0.00, 0.00, 0.00, 0.00, 0.00, 0.00, 0
306144, -31765.43, -35312.31, 0.00, 0.00, 0.00, 0.00, 0.00, 0.00, 0
306145, -31786.01, -35387.57, 0.00, 0.00, 0.00, 0.00, 0.00, 0.00, 0
306146, -31794.60, -35443.45, 0.00, 0.00, 0.00, 0.00, 0.00, 0.00, 0
306147, -31772.71, -35375.59, 0.00, 0.00, 0.00, 0.00, 0.00, 0.00, 0
306148, -31760.62, -35314.59, 0.00, 0.00, 0.00, 0.00, 0.00, 0.00, 0
306149, -31781.21, -35377.71, 0.00, 0.00, 0.00, 0.00, 0.00, 0.00, 0
306150, -31797.61, -35449.55, 0.00, 0.00, 0.00, 0.00, 0.00, 0.00, 0
306151, -31776.54, -35391.17, 0.00, 0.00, 0.00, 0.00, 0.00, 0.00, 0
306152, -31758.12, -35308.00, 0.00, 0.00, 0.00, 0.00, 0.00, 0.00, 0
306153, -31767.73, -35351.43, 0.00, 0.00, 0.00, 0.00, 0.00, 0.00, 0
306154, -31789.25, -35438.36, 0.00, 0.00, 0.00, 0.00, 0.00, 0.00, 0
306155, -31772.89, -35400.56, 0.00, 0.00, 0.00, 0.00, 0.00, 0.00, 0
306156, -31745.82, -35306.23, 0.00, 0.00, 0.00, 0.00, 0.00, 0.00, 0
306157, -31755.21, -35343.29, 0.00, 0.00, 0.00, 0.00, 0.00, 0.00, 0
306158, -31785.68, -35454.58, 0.00, 0.00, 0.00, 0.00, 0.00, 0.00, 0
306159, -31778.79, -35445.11, 0.00, 0.00, 0.00, 0.00, 0.00, 0.00, 0
306160, -31755.77, -35343.09, 0.00, 0.00, 0.00, 0.00, 0.00, 0.00, 0
306161, -31762.99, -35336.18, 0.00, 0.00, 0.00, 0.00, 0.00, 0.00, 0
306162, -31786.82, -35431.29, 0.00, 0.00, 0.00, 0.00, 0.00, 0.00, 0
306163, -31782.19, -35444.30, 0.00, 0.00, 0.00, 0.00, 0.00, 0.00, 0
306164, -31754.27, -35346.42, 0.00, 0.00, 0.00, 0.00, 0.00, 0.00, 0
306165, -31755.66, -35306.32, 0.00, 0.00, 0.00, 0.00, 0.00, 0.00, 0
306166, -31779.40, -35402.41, 0.00, 0.00, 0.00, 0.00, 0.00, 0.00, 0
306167, -31781.07, -35457.13, 0.00, 0.00, 0.00, 0.00, 0.00, 0.00, 0
306168, -31752.64, -35371.70, 0.00, 0.00, 0.00, 0.00, 0.00, 0.00, 0
306169, -31744.75, -35300.96, 0.00, 0.00, 0.00, 0.00, 0.00, 0.00, 0
306170, -31768.47, -35379.21, 0.00, 0.00, 0.00, 0.00, 0.00, 0.00, 0
306171, -31785.16, -35444.64, 0.00, 0.00, 0.00, 0.00, 0.00, 0.00, 0
306172, -31760.35, -35361.49, 0.00, 0.00, 0.00, 0.00, 0.00, 0.00, 0
306173, -31747.32, -35298.72, 0.00, 0.00, 0.00, 0.00, 0.00, 0.00, 0
306174, -31771.13, -35385.76, 0.00, 0.00, 0.00, 0.00, 0.00, 0.00, 0
306175, -31791.58, -35467.28, 0.00, 0.00, 0.00, 0.00, 0.00, 0.00, 0
306176, -31776.07, -35411.91, 0.00, 0.00, 0.00, 0.00, 0.00, 0.00, 0
306177, -31757.85, -35319.04, 0.00, 0.00, 0.00, 0.00, 0.00, 0.00, 0
306178, -31766.68, -35349.98, 0.00, 0.00, 0.00, 0.00, 0.00, 0.00, 0
306179, -31790.82, -35444.95, 0.00, 0.00, 0.00, 0.00, 0.00, 0.00, 0
306180, -31779.11, -35431.63, 0.00, 0.00, 0.00, 0.00, 0.00, 0.00, 0
306181, -31751.50, -35338.91, 0.00, 0.00, 0.00, 0.00, 0.00, 0.00, 0
306182, -31759.86, -35345.30, 0.00, 0.00, 0.00, 0.00, 0.00, 0.00, 0
306183, -31785.30, -35444.39, 0.00, 0.00, 0.00, 0.00, 0.00, 0.00, 0
306184, -31778.64, -35444.70, 0.00, 0.00, 0.00, 0.00, 0.00, 0.00, 0
306185, -31753.60, -35344.39, 0.00, 0.00, 0.00, 0.00, 0.00, 0.00, 0
306186, -31757.40, -35318.37, 0.00, 0.00, 0.00, 0.00, 0.00, 0.00, 0
306187, -31785.83, -35415.64, 0.00, 0.00, 0.00, 0.00, 0.00, 0.00, 0
306188, -31785.12, -35448.95, 0.00, 0.00, 0.00, 0.00, 0.00, 0.00, 0
306189, -31757.00, -35359.81, 0.00, 0.00, 0.00, 0.00, 0.00, 0.00, 0
306190, -31756.66, -35321.16, 0.00, 0.00, 0.00, 0.00, 0.00, 0.00, 0
306191, -31786.91, -35409.50, 0.00, 0.00, 0.00, 0.00, 0.00, 0.00, 0
306192, -31796.52, -35454.09, 0.00, 0.00, 0.00, 0.00, 0.00, 0.00, 0
306193, -31769.79, -35358.47, 0.00, 0.00, 0.00, 0.00, 0.00, 0.00, 0
306194, -31757.04, -35294.68, 0.00, 0.00, 0.00, 0.00, 0.00, 0.00, 0
306195, -31779.87, -35395.33, 0.00, 0.00, 0.00, 0.00, 0.00, 0.00, 0
306196, -31792.88, -35470.59, 0.00, 0.00, 0.00, 0.00, 0.00, 0.00, 0
306197, -31770.21, -35412.88, 0.00, 0.00, 0.00, 0.00, 0.00, 0.00, 0
306198, -31754.32, -35331.51, 0.00, 0.00, 0.00, 0.00, 0.00, 0.00, 0
306199, -31770.59, -35374.90, 0.00, 0.00, 0.00, 0.00, 0.00, 0.00, 0
306200, -31794.82, -35453.64, 0.00, 0.00, 0.00, 0.00, 0.00, 0.00, 0
306201, -31774.95, -35403.53, 0.00, 0.00, 0.00, 0.00, 0.00, 0.00, 0
306202, -31751.43, -35311.78, 0.00, 0.00, 0.00, 0.00, 0.00, 0.00, 0
306203, -31766.52, -35344.90, 0.00, 0.00, 0.00, 0.00, 0.00, 0.00, 0
306204, -31792.83, -35447.81, 0.00, 0.00, 0.00, 0.00, 0.00, 0.00, 0
306205, -31780.49, -35453.87, 0.00, 0.00, 0.00, 0.00, 0.00, 0.00, 0
306206, -31755.59, -35359.56, 0.00, 0.00, 0.00, 0.00, 0.00, 0.00, 0
306207, -31767.01, -35348.43, 0.00, 0.00, 0.00, 0.00, 0.00, 0.00, 0
306208, -31793.25, -35437.06, 0.00, 0.00, 0.00, 0.00, 0.00, 0.00, 0
306209, -31790.55, -35448.88, 0.00, 0.00, 0.00, 0.00, 0.00, 0.00, 0
306210, -31767.13, -35361.17, 0.00, 0.00, 0.00, 0.00, 0.00, 0.00, 0
306211, -31769.34, -35333.57, 0.00, 0.00, 0.00, 0.00, 0.00, 0.00, 0
306212, -31798.95, -35416.25, 0.00, 0.00, 0.00, 0.00, 0.00, 0.00, 0
306213, -31798.64, -35443.79, 0.00, 0.00, 0.00, 0.00, 0.00, 0.00, 0
306214, -31768.00, -35358.65, 0.00, 0.00, 0.00, 0.00, 0.00, 0.00, 0
306215, -31757.20, -35322.80, 0.00, 0.00, 0.00, 0.00, 0.00, 0.00, 0
306216, -31776.85, -35416.98, 0.00, 0.00, 0.00, 0.00, 0.00, 0.00, 0
306217, -31789.32, -35467.43, 0.00, 0.00, 0.00, 0.00, 0.00, 0.00, 0
306218, -31771.82, -35391.08, 0.00, 0.00, 0.00, 0.00, 0.00, 0.00, 0
306219, -31763.41, -35337.61, 0.00, 0.00, 0.00, 0.00, 0.00, 0.00, 0
306220, -31787.58, -35409.45, 0.00, 0.00, 0.00, 0.00, 0.00, 0.00, 0
306221, -31809.15, -35473.27, 0.00, 0.00, 0.00, 0.00, 0.00, 0.00, 0
306222, -31793.66, -35415.04, 0.00, 0.00, 0.00, 0.00, 0.00, 0.00, 0
306223, -31772.54, -35329.19, 0.00, 0.00, 0.00, 0.00, 0.00, 0.00, 0
306224, -31784.60, -35374.76, 0.00, 0.00, 0.00, 0.00, 0.00, 0.00, 0
306225, -31804.59, -35459.75, 0.00, 0.00, 0.00, 0.00, 0.00, 0.00, 0
306226, -31792.70, -35427.47, 0.00, 0.00, 0.00, 0.00, 0.00, 0.00, 0
306227, -31772.22, -35330.62, 0.00, 0.00, 0.00, 0.00, 0.00, 0.00, 0
306228, -31777.54, -35351.76, 0.00, 0.00, 0.00, 0.00, 0.00, 0.00, 0
306229, -31802.29, -35455.23, 0.00, 0.00, 0.00, 0.00, 0.00, 0.00, 0
306230, -31797.03, -35444.46, 0.00, 0.00, 0.00, 0.00, 0.00, 0.00, 0
306231, -31771.24, -35345.19, 0.00, 0.00, 0.00, 0.00, 0.00, 0.00, 0
306232, -31774.52, -35343.38, 0.00, 0.00, 0.00, 0.00, 0.00, 0.00, 0
306233, -31803.76, -35432.92, 0.00, 0.00, 0.00, 0.00, 0.00, 0.00, 0
306234, -31804.38, -35447.81, 0.00, 0.00, 0.00, 0.00, 0.00, 0.00, 0
306235, -31775.33, -35355.03, 0.00, 0.00, 0.00, 0.00, 0.00, 0.00, 0
306236, -31772.76, -35333.50, 0.00, 0.00, 0.00, 0.00, 0.00, 0.00, 0
306237, -31799.22, -35436.21, 0.00, 0.00, 0.00, 0.00, 0.00, 0.00, 0
306238, -31803.09, -35476.66, 0.00, 0.00, 0.00, 0.00, 0.00, 0.00, 0
306239, -31775.62, -35380.66, 0.00, 0.00, 0.00, 0.00, 0.00, 0.00, 0
306240, -31766.61, -35326.35, 0.00, 0.00, 0.00, 0.00, 0.00, 0.00, 0
306241, -31787.82, -35413.23, 0.00, 0.00, 0.00, 0.00, 0.00, 0.00, 0
306242, -31797.08, -35465.60, 0.00, 0.00, 0.00, 0.00, 0.00, 0.00, 0
306243, -31773.50, -35387.17, 0.00, 0.00, 0.00, 0.00, 0.00, 0.00, 0
306244, -31761.18, -35316.45, 0.00, 0.00, 0.00, 0.00, 0.00, 0.00, 0
306245, -31776.60, -35389.63, 0.00, 0.00, 0.00, 0.00, 0.00, 0.00, 0
306246, -31793.28, -35465.15, 0.00, 0.00, 0.00, 0.00, 0.00, 0.00, 0
306247, -31777.90, -35402.43, 0.00, 0.00, 0.00, 0.00, 0.00, 0.00, 0
306248, -31759.86, -35320.02, 0.00, 0.00, 0.00, 0.00, 0.00, 0.00, 0
306249, -31774.03, -35371.79, 0.00, 0.00, 0.00, 0.00, 0.00, 0.00, 0
306250, -31795.78, -35469.60, 0.00, 0.00, 0.00, 0.00, 0.00, 0.00, 0
306251, -31780.07, -35434.91, 0.00, 0.00, 0.00, 0.00, 0.00, 0.00, 0
306252, -31757.18, -35334.84, 0.00, 0.00, 0.00, 0.00, 0.00, 0.00, 0
306253, -31768.69, -35360.95, 0.00, 0.00, 0.00, 0.00, 0.00, 0.00, 0
306254, -31796.56, -35462.09, 0.00, 0.00, 0.00, 0.00, 0.00, 0.00, 0
306255, -31790.48, -35453.64, 0.00, 0.00, 0.00, 0.00, 0.00, 0.00, 0
306256, -31764.40, -35346.29, 0.00, 0.00, 0.00, 0.00, 0.00, 0.00, 0
306257, -31762.90, -35330.53, 0.00, 0.00, 0.00, 0.00, 0.00, 0.00, 0
306258, -31791.24, -35446.78, 0.00, 0.00, 0.00, 0.00, 0.00, 0.00, 0
306259, -31798.35, -35487.95, 0.00, 0.00, 0.00, 0.00, 0.00, 0.00, 0
306260, -31768.85, -35379.17, 0.00, 0.00, 0.00, 0.00, 0.00, 0.00, 0
306261, -31762.70, -35335.07, 0.00, 0.00, 0.00, 0.00, 0.00, 0.00, 0
306262, -31785.92, -35425.52, 0.00, 0.00, 0.00, 0.00, 0.00, 0.00, 0
306263, -31794.51, -35469.98, 0.00, 0.00, 0.00, 0.00, 0.00, 0.00, 0
306264, -31774.17, -35384.78, 0.00, 0.00, 0.00, 0.00, 0.00, 0.00, 0
306265, -31765.09, -35317.90, 0.00, 0.00, 0.00, 0.00, 0.00, 0.00, 0
306266, -31780.47, -35392.55, 0.00, 0.00, 0.00, 0.00, 0.00, 0.00, 0
306267, -31784.40, -35452.08, 0.00, 0.00, 0.00, 0.00, 0.00, 0.00, 0
306268, -31774.05, -35389.89, 0.00, 0.00, 0.00, 0.00, 0.00, 0.00, 0
306269, -31759.62, -35314.66, 0.00, 0.00, 0.00, 0.00, 0.00, 0.00, 0
306270, -31778.28, -35366.67, 0.00, 0.00, 0.00, 0.00, 0.00, 0.00, 0
306271, -31797.72, -35454.54, 0.00, 0.00, 0.00, 0.00, 0.00, 0.00, 0
306272, -31774.77, -35426.38, 0.00, 0.00, 0.00, 0.00, 0.00, 0.00, 0
306273, -31751.30, -35337.50, 0.00, 0.00, 0.00, 0.00, 0.00, 0.00, 0
306274, -31762.10, -35365.96, 0.00, 0.00, 0.00, 0.00, 0.00, 0.00, 0
306275, -31790.59, -35472.53, 0.00, 0.00, 0.00, 0.00, 0.00, 0.00, 0
306276, -31781.83, -35447.21, 0.00, 0.00, 0.00, 0.00, 0.00, 0.00, 0
306277, -31755.44, -35341.93, 0.00, 0.00, 0.00, 0.00, 0.00, 0.00, 0
306278, -31757.60, -35337.26, 0.00, 0.00, 0.00, 0.00, 0.00, 0.00, 0
306279, -31786.46, -35439.74, 0.00, 0.00, 0.00, 0.00, 0.00, 0.00, 0
306280, -31787.20, -35451.88, 0.00, 0.00, 0.00, 0.00, 0.00, 0.00, 0
306281, -31761.69, -35353.98, 0.00, 0.00, 0.00, 0.00, 0.00, 0.00, 0
306282, -31762.56, -35337.70, 0.00, 0.00, 0.00, 0.00, 0.00, 0.00, 0
306283, -31785.79, -35435.20, 0.00, 0.00, 0.00, 0.00, 0.00, 0.00, 0
306284, -31784.98, -35455.05, 0.00, 0.00, 0.00, 0.00, 0.00, 0.00, 0
306285, -31759.19, -35354.67, 0.00, 0.00, 0.00, 0.00, 0.00, 0.00, 0
306286, -31755.61, -35321.32, 0.00, 0.00, 0.00, 0.00, 0.00, 0.00, 0
306287, -31779.33, -35424.03, 0.00, 0.00, 0.00, 0.00, 0.00, 0.00, 0
306288, -31792.05, -35462.07, 0.00, 0.00, 0.00, 0.00, 0.00, 0.00, 0
306289, -31767.35, -35352.46, 0.00, 0.00, 0.00, 0.00, 0.00, 0.00, 0
306290, -31758.34, -35299.53, 0.00, 0.00, 0.00, 0.00, 0.00, 0.00, 0
306291, -31781.90, -35412.14, 0.00, 0.00, 0.00, 0.00, 0.00, 0.00, 0
306292, -31798.55, -35481.31, 0.00, 0.00, 0.00, 0.00, 0.00, 0.00, 0
306293, -31776.11, -35386.99, 0.00, 0.00, 0.00, 0.00, 0.00, 0.00, 0
306294, -31755.93, -35312.43, 0.00, 0.00, 0.00, 0.00, 0.00, 0.00, 0
306295, -31773.74, -35402.68, 0.00, 0.00, 0.00, 0.00, 0.00, 0.00, 0
306296, -31803.65, -35499.51, 0.00, 0.00, 0.00, 0.00, 0.00, 0.00, 0
306297, -31787.71, -35426.02, 0.00, 0.00, 0.00, 0.00, 0.00, 0.00, 0
306298, -31758.56, -35300.85, 0.00, 0.00, 0.00, 0.00, 0.00, 0.00, 0
306299, -31765.65, -35357.26, 0.00, 0.00, 0.00, 0.00, 0.00, 0.00, 0
306300, -31794.62, -35486.05, 0.00, 0.00, 0.00, 0.00, 0.00, 0.00, 0
306301, -31791.58, -35429.77, 0.00, 0.00, 0.00, 0.00, 0.00, 0.00, 0
306302, -31758.63, -35292.18, 0.00, 0.00, 0.00, 0.00, 0.00, 0.00, 0
306303, -31754.03, -35329.30, 0.00, 0.00, 0.00, 0.00, 0.00, 0.00, 0
306304, -31788.43, -35476.38, 0.00, 0.00, 0.00, 0.00, 0.00, 0.00, 0
306305, -31806.84, -35449.15, 0.00, 0.00, 0.00, 0.00, 0.00, 0.00, 0
306306, -31773.12, -35284.42, 0.00, 0.00, 0.00, 0.00, 0.00, 0.00, 0
306307, -31762.74, -35298.43, 0.00, 0.00, 0.00, 0.00, 0.00, 0.00, 0
306308, -31797.97, -35470.05, 0.00, 0.00, 0.00, 0.00, 0.00, 0.00, 0
306309, -31813.73, -35487.13, 0.00, 0.00, 0.00, 0.00, 0.00, 0.00, 0
306310, -31783.06, -35335.22, 0.00, 0.00, 0.00, 0.00, 0.00, 0.00, 0
306311, -31762.63, -35299.48, 0.00, 0.00, 0.00, 0.00, 0.00, 0.00, 0
306312, -31792.36, -35454.18, 0.00, 0.00, 0.00, 0.00, 0.00, 0.00, 0
306313, -31821.82, -35508.47, 0.00, 0.00, 0.00, 0.00, 0.00, 0.00, 0
306314, -31790.04, -35344.12, 0.00, 0.00, 0.00, 0.00, 0.00, 0.00, 0
306315, -31760.75, -35280.33, 0.00, 0.00, 0.00, 0.00, 0.00, 0.00, 0
306316, -31792.45, -35449.06, 0.00, 0.00, 0.00, 0.00, 0.00, 0.00, 0
306317, -31833.82, -35558.61, 0.00, 0.00, 0.00, 0.00, 0.00, 0.00, 0
306318, -31808.23, -35390.81, 0.00, 0.00, 0.00, 0.00, 0.00, 0.00, 0
306319, -31766.21, -35241.75, 0.00, 0.00, 0.00, 0.00, 0.00, 0.00, 0
306320, -31785.30, -35390.99, 0.00, 0.00, 0.00, 0.00, 0.00, 0.00, 0
306321, -31831.41, -35560.53, 0.00, 0.00, 0.00, 0.00, 0.00, 0.00, 0
306322, -31806.58, -35414.19, 0.00, 0.00, 0.00, 0.00, 0.00, 0.00, 0
306323, -31754.65, -35241.52, 0.00, 0.00, 0.00, 0.00, 0.00, 0.00, 0
306324, -31770.23, -35365.38, 0.00, 0.00, 0.00, 0.00, 0.00, 0.00, 0
306325, -31827.83, -35561.78, 0.00, 0.00, 0.00, 0.00, 0.00, 0.00, 0
306326, -31815.85, -35461.09, 0.00, 0.00, 0.00, 0.00, 0.00, 0.00, 0
306327, -31747.79, -35246.18, 0.00, 0.00, 0.00, 0.00, 0.00, 0.00, 0
306328, -31739.07, -35309.59, 0.00, 0.00, 0.00, 0.00, 0.00, 0.00, 0
306329, -31804.70, -35542.20, 0.00, 0.00, 0.00, 0.00, 0.00, 0.00, 0
306330, -31806.42, -35503.60, 0.00, 0.00, 0.00, 0.00, 0.00, 0.00, 0
306331, -31742.31, -35284.38, 0.00, 0.00, 0.00, 0.00, 0.00, 0.00, 0
306332, -31724.66, -35284.60, 0.00, 0.00, 0.00, 0.00, 0.00, 0.00, 0
306333, -31775.22, -35510.30, 0.00, 0.00, 0.00, 0.00, 0.00, 0.00, 0
306334, -31792.81, -35526.42, 0.00, 0.00, 0.00, 0.00, 0.00, 0.00, 0
306335, -31732.19, -35298.50, 0.00, 0.00, 0.00, 0.00, 0.00, 0.00, 0
306336, -31707.42, -35252.81, 0.00, 0.00, 0.00, 0.00, 0.00, 0.00, 0
306337, -31767.08, -35470.59, 0.00, 0.00, 0.00, 0.00, 0.00, 0.00, 0
306338, -31808.23, -35520.14, 0.00, 0.00, 0.00, 0.00, 0.00, 0.00, 0
306339, -31743.14, -35274.65, 0.00, 0.00, 0.00, 0.00, 0.00, 0.00, 0
306340, -31697.32, -35199.91, 0.00, 0.00, 0.00, 0.00, 0.00, 0.00, 0
306341, -31757.92, -35452.64, 0.00, 0.00, 0.00, 0.00, 0.00, 0.00, 0
306342, -31810.11, -35584.73, 0.00, 0.00, 0.00, 0.00, 0.00, 0.00, 0
306343, -31751.30, -35366.85, 0.00, 0.00, 0.00, 0.00, 0.00, 0.00, 0
306344, -31691.62, -35207.84, 0.00, 0.00, 0.00, 0.00, 0.00, 0.00, 0
306345, -31736.88, -35379.82, 0.00, 0.00, 0.00, 0.00, 0.00, 0.00, 0
306346, -31811.22, -35555.77, 0.00, 0.00, 0.00, 0.00, 0.00, 0.00, 0
306347, -31780.22, -35392.71, 0.00, 0.00, 0.00, 0.00, 0.00, 0.00, 0
306348, -31706.75, -35182.29, 0.00, 0.00, 0.00, 0.00, 0.00, 0.00, 0
306349, -31736.62, -35292.60, 0.00, 0.00, 0.00, 0.00, 0.00, 0.00, 0
306350, -31813.95, -35534.27, 0.00, 0.00, 0.00, 0.00, 0.00, 0.00, 0
306351, -31792.09, -35464.46, 0.00, 0.00, 0.00, 0.00, 0.00, 0.00, 0
306352, -31716.48, -35220.31, 0.00, 0.00, 0.00, 0.00, 0.00, 0.00, 0
306353, -31733.22, -35266.60, 0.00, 0.00, 0.00, 0.00, 0.00, 0.00, 0
306354, -31821.35, -35508.02, 0.00, 0.00, 0.00, 0.00, 0.00, 0.00, 0
306355, -31824.90, -35479.10, 0.00, 0.00, 0.00, 0.00, 0.00, 0.00, 0
306356, -31745.42, -35228.96, 0.00, 0.00, 0.00, 0.00, 0.00, 0.00, 0
306357, -31735.61, -35235.87, 0.00, 0.00, 0.00, 0.00, 0.00, 0.00, 0
306358, -31816.84, -35488.78, 0.00, 0.00, 0.00, 0.00, 0.00, 0.00, 0
306359, -31839.37, -35505.48, 0.00, 0.00, 0.00, 0.00, 0.00, 0.00, 0
306360, -31749.62, -35259.14, 0.00, 0.00, 0.00, 0.00, 0.00, 0.00, 0
306361, -31723.99, -35201.79, 0.00, 0.00, 0.00, 0.00, 0.00, 0.00, 0
306362, -31812.05, -35445.20, 0.00, 0.00, 0.00, 0.00, 0.00, 0.00, 0
306363, -31860.13, -35535.38, 0.00, 0.00, 0.00, 0.00, 0.00, 0.00, 0
306364, -31782.08, -35304.56, 0.00, 0.00, 0.00, 0.00, 0.00, 0.00, 0
306365, -31737.78, -35200.40, 0.00, 0.00, 0.00, 0.00, 0.00, 0.00, 0
306366, -31806.44, -35407.04, 0.00, 0.00, 0.00, 0.00, 0.00, 0.00, 0
306367, -31866.17, -35531.63, 0.00, 0.00, 0.00, 0.00, 0.00, 0.00, 0
306368, -31799.63, -35340.14, 0.00, 0.00, 0.00, 0.00, 0.00, 0.00, 0
306369, -31733.87, -35190.43, 0.00, 0.00, 0.00, 0.00, 0.00, 0.00, 0
306370, -31794.95, -35362.67, 0.00, 0.00, 0.00, 0.00, 0.00, 0.00, 0
306371, -31876.07, -35551.75, 0.00, 0.00, 0.00, 0.00, 0.00, 0.00, 0
306372, -31826.71, -35395.77, 0.00, 0.00, 0.00, 0.00, 0.00, 0.00, 0
306373, -31743.63, -35177.24, 0.00, 0.00, 0.00, 0.00, 0.00, 0.00, 0
306374, -31782.53, -35288.17, 0.00, 0.00, 0.00, 0.00, 0.00, 0.00, 0
306375, -31875.11, -35529.26, 0.00, 0.00, 0.00, 0.00, 0.00, 0.00, 0
306376, -31847.26, -35422.04, 0.00, 0.00, 0.00, 0.00, 0.00, 0.00, 0
306377, -31750.14, -35160.07, 0.00, 0.00, 0.00, 0.00, 0.00, 0.00, 0
306378, -31772.76, -35249.44, 0.00, 0.00, 0.00, 0.00, 0.00, 0.00, 0
306379, -31879.00, -35540.86, 0.00, 0.00, 0.00, 0.00, 0.00, 0.00, 0
306380, -31871.73, -35513.43, 0.00, 0.00, 0.00, 0.00, 0.00, 0.00, 0
306381, -31771.53, -35231.58, 0.00, 0.00, 0.00, 0.00, 0.00, 0.00, 0
306382, -31767.79, -35217.30, 0.00, 0.00, 0.00, 0.00, 0.00, 0.00, 0
306383, -31862.08, -35460.64, 0.00, 0.00, 0.00, 0.00, 0.00, 0.00, 0
306384, -31884.52, -35477.40, 0.00, 0.00, 0.00, 0.00, 0.00, 0.00, 0
306385, -31792.00, -35234.60, 0.00, 0.00, 0.00, 0.00, 0.00, 0.00, 0
306386, -31763.13, -35193.11, 0.00, 0.00, 0.00, 0.00, 0.00, 0.00, 0
306387, -31851.59, -35456.64, 0.00, 0.00, 0.00, 0.00, 0.00, 0.00, 0
306388, -31897.06, -35553.33, 0.00, 0.00, 0.00, 0.00, 0.00, 0.00, 0
306389, -31812.81, -35309.30, 0.00, 0.00, 0.00, 0.00, 0.00, 0.00, 0
306390, -31760.08, -35174.25, 0.00, 0.00, 0.00, 0.00, 0.00, 0.00, 0
306391, -31832.21, -35388.04, 0.00, 0.00, 0.00, 0.00, 0.00, 0.00, 0
306392, -31904.25, -35558.18, 0.00, 0.00, 0.00, 0.00, 0.00, 0.00, 0
306393, -31836.04, -35362.38, 0.00, 0.00, 0.00, 0.00, 0.00, 0.00, 0
306394, -31756.29, -35172.28, 0.00, 0.00, 0.00, 0.00, 0.00, 0.00, 0
306395, -31815.56, -35356.97, 0.00, 0.00, 0.00, 0.00, 0.00, 0.00, 0
306396, -31909.46, -35572.82, 0.00, 0.00, 0.00, 0.00, 0.00, 0.00, 0
306397, -31858.99, -35396.69, 0.00, 0.00, 0.00, 0.00, 0.00, 0.00, 0
306398, -31764.53, -35152.14, 0.00, 0.00, 0.00, 0.00, 0.00, 0.00, 0
306399, -31802.60, -35285.00, 0.00, 0.00, 0.00, 0.00, 0.00, 0.00, 0
306400, -31899.29, -35571.66, 0.00, 0.00, 0.00, 0.00, 0.00, 0.00, 0
306401, -31873.41, -35493.43, 0.00, 0.00, 0.00, 0.00, 0.00, 0.00, 0
306402, -31771.64, -35199.17, 0.00, 0.00, 0.00, 0.00, 0.00, 0.00, 0
306403, -31789.72, -35255.20, 0.00, 0.00, 0.00, 0.00, 0.00, 0.00, 0
306404, -31894.20, -35558.50, 0.00, 0.00, 0.00, 0.00, 0.00, 0.00, 0
306405, -31886.44, -35527.54, 0.00, 0.00, 0.00, 0.00, 0.00, 0.00, 0
306406, -31785.95, -35236.05, 0.00, 0.00, 0.00, 0.00, 0.00, 0.00, 0
306407, -31779.60, -35223.42, 0.00, 0.00, 0.00, 0.00, 0.00, 0.00, 0
306408, -31871.96, -35492.04, 0.00, 0.00, 0.00, 0.00, 0.00, 0.00, 0
306409, -31897.19, -35538.96, 0.00, 0.00, 0.00, 0.00, 0.00, 0.00, 0
306410, -31793.59, -35239.96, 0.00, 0.00, 0.00, 0.00, 0.00, 0.00, 0
306411, -31754.59, -35137.54, 0.00, 0.00, 0.00, 0.00, 0.00, 0.00, 0
306412, -31846.63, -35420.52, 0.00, 0.00, 0.00, 0.00, 0.00, 0.00, 0
306413, -31901.06, -35570.48, 0.00, 0.00, 0.00, 0.00, 0.00, 0.00, 0
306414, -31806.78, -35303.04, 0.00, 0.00, 0.00, 0.00, 0.00, 0.00, 0
306415, -31745.40, -35127.57, 0.00, 0.00, 0.00, 0.00, 0.00, 0.00, 0
306416, -31825.20, -35352.34, 0.00, 0.00, 0.00, 0.00, 0.00, 0.00, 0
306417, -31899.40, -35539.96, 0.00, 0.00, 0.00, 0.00, 0.00, 0.00, 0
306418, -31828.79, -35345.91, 0.00, 0.00, 0.00, 0.00, 0.00, 0.00, 0
306419, -31750.29, -35154.42, 0.00, 0.00, 0.00, 0.00, 0.00, 0.00, 0
306420, -31810.13, -35333.26, 0.00, 0.00, 0.00, 0.00, 0.00, 0.00, 0
306421, -31897.95, -35582.64, 0.00, 0.00, 0.00, 0.00, 0.00, 0.00, 0
306422, -31848.31, -35417.05, 0.00, 0.00, 0.00, 0.00, 0.00, 0.00, 0
306423, -31754.88, -35162.91, 0.00, 0.00, 0.00, 0.00, 0.00, 0.00, 0
306424, -31792.05, -35279.70, 0.00, 0.00, 0.00, 0.00, 0.00, 0.00, 0
306425, -31895.47, -35570.52, 0.00, 0.00, 0.00, 0.00, 0.00, 0.00, 0
306426, -31874.82, -35501.01, 0.00, 0.00, 0.00, 0.00, 0.00, 0.00, 0
306427, -31764.55, -35204.02, 0.00, 0.00, 0.00, 0.00, 0.00, 0.00, 0
306428, -31772.76, -35226.46, 0.00, 0.00, 0.00, 0.00, 0.00, 0.00, 0
306429, -31880.45, -35491.98, 0.00, 0.00, 0.00, 0.00, 0.00, 0.00, 0
306430, -31891.45, -35494.32, 0.00, 0.00, 0.00, 0.00, 0.00, 0.00, 0
306431, -31789.21, -35215.57, 0.00, 0.00, 0.00, 0.00, 0.00, 0.00, 0
306432, -31773.47, -35192.42, 0.00, 0.00, 0.00, 0.00, 0.00, 0.00, 0
306433, -31873.86, -35479.64, 0.00, 0.00, 0.00, 0.00, 0.00, 0.00, 0
306434, -31909.48, -35562.16, 0.00, 0.00, 0.00, 0.00, 0.00, 0.00, 0
306435, -31811.31, -35283.75, 0.00, 0.00, 0.00, 0.00, 0.00, 0.00, 0
306436, -31770.84, -35175.97, 0.00, 0.00, 0.00, 0.00, 0.00, 0.00, 0
306437, -31853.56, -35412.92, 0.00, 0.00, 0.00, 0.00, 0.00, 0.00, 0
306438, -31904.48, -35539.65, 0.00, 0.00, 0.00, 0.00, 0.00, 0.00, 0
306439, -31818.87, -35298.01, 0.00, 0.00, 0.00, 0.00, 0.00, 0.00, 0
306440, -31758.90, -35153.82, 0.00, 0.00, 0.00, 0.00, 0.00, 0.00, 0
306441, -31827.43, -35381.29, 0.00, 0.00, 0.00, 0.00, 0.00, 0.00, 0
306442, -31902.76, -35564.60, 0.00, 0.00, 0.00, 0.00, 0.00, 0.00, 0
306443, -31839.50, -35365.64, 0.00, 0.00, 0.00, 0.00, 0.00, 0.00, 0
306444, -31752.08, -35172.35, 0.00, 0.00, 0.00, 0.00, 0.00, 0.00, 0
306445, -31799.36, -35351.34, 0.00, 0.00, 0.00, 0.00, 0.00, 0.00, 0
306446, -31894.69, -35584.18, 0.00, 0.00, 0.00, 0.00, 0.00, 0.00, 0
306447, -31860.87, -35428.21, 0.00, 0.00, 0.00, 0.00, 0.00, 0.00, 0
306448, -31762.83, -35156.77, 0.00, 0.00, 0.00, 0.00, 0.00, 0.00, 0
306449, -31792.03, -35258.22, 0.00, 0.00, 0.00, 0.00, 0.00, 0.00, 0
306450, -31890.98, -35551.48, 0.00, 0.00, 0.00, 0.00, 0.00, 0.00, 0
306451, -31868.40, -35476.15, 0.00, 0.00, 0.00, 0.00, 0.00, 0.00, 0
306452, -31760.20, -35160.86, 0.00, 0.00, 0.00, 0.00, 0.00, 0.00, 0
306453, -31763.15, -35183.70, 0.00, 0.00, 0.00, 0.00, 0.00, 0.00, 0
306454, -31867.42, -35517.57, 0.00, 0.00, 0.00, 0.00, 0.00, 0.00, 0
306455, -31881.57, -35548.91, 0.00, 0.00, 0.00, 0.00, 0.00, 0.00, 0
306456, -31780.02, -35244.14, 0.00, 0.00, 0.00, 0.00, 0.00, 0.00, 0
306457, -31757.85, -35177.58, 0.00, 0.00, 0.00, 0.00, 0.00, 0.00, 0
306458, -31856.22, -35453.38, 0.00, 0.00, 0.00, 0.00, 0.00, 0.00, 0
306459, -31897.88, -35542.67, 0.00, 0.00, 0.00, 0.00, 0.00, 0.00, 0
306460, -31788.90, -35240.34, 0.00, 0.00, 0.00, 0.00, 0.00, 0.00, 0
306461, -31737.73, -35119.71, 0.00, 0.00, 0.00, 0.00, 0.00, 0.00, 0
306462, -31816.28, -35428.21, 0.00, 0.00, 0.00, 0.00, 0.00, 0.00, 0
306463, -31877.95, -35608.50, 0.00, 0.00, 0.00, 0.00, 0.00, 0.00, 0
306464, -31797.61, -35340.92, 0.00, 0.00, 0.00, 0.00, 0.00, 0.00, 0
306465, -31722.60, -35165.89, 0.00, 0.00, 0.00, 0.00, 0.00, 0.00, 0
306466, -31774.43, -35392.40, 0.00, 0.00, 0.00, 0.00, 0.00, 0.00, 0
306467, -31847.14, -35595.96, 0.00, 0.00, 0.00, 0.00, 0.00, 0.00, 0
306468, -31786.35, -35409.54, 0.00, 0.00, 0.00, 0.00, 0.00, 0.00, 0
306469, -31690.28, -35176.04, 0.00, 0.00, 0.00, 0.00, 0.00, 0.00, 0
306470, -31718.69, -35306.64, 0.00, 0.00, 0.00, 0.00, 0.00, 0.00, 0
306471, -31803.89, -35551.05, 0.00, 0.00, 0.00, 0.00, 0.00, 0.00, 0
306472, -31775.11, -35444.55, 0.00, 0.00, 0.00, 0.00, 0.00, 0.00, 0
306473, -31673.22, -35184.62, 0.00, 0.00, 0.00, 0.00, 0.00, 0.00, 0
306474, -31681.05, -35254.15, 0.00, 0.00, 0.00, 0.00, 0.00, 0.00, 0
306475, -31764.98, -35531.11, 0.00, 0.00, 0.00, 0.00, 0.00, 0.00, 0
306476, -31757.51, -35495.71, 0.00, 0.00, 0.00, 0.00, 0.00, 0.00, 0
306477, -31658.83, -35193.04, 0.00, 0.00, 0.00, 0.00, 0.00, 0.00, 0
306478, -31652.80, -35201.34, 0.00, 0.00, 0.00, 0.00, 0.00, 0.00, 0
306479, -31741.51, -35504.54, 0.00, 0.00, 0.00, 0.00, 0.00, 0.00, 0
306480, -31759.48, -35530.60, 0.00, 0.00, 0.00, 0.00, 0.00, 0.00, 0
306481, -31667.75, -35234.44, 0.00, 0.00, 0.00, 0.00, 0.00, 0.00, 0
306482, -31631.27, -35181.11, 0.00, 0.00, 0.00, 0.00, 0.00, 0.00, 0
306483, -31711.47, -35485.09, 0.00, 0.00, 0.00, 0.00, 0.00, 0.00, 0
306484, -31748.57, -35575.86, 0.00, 0.00, 0.00, 0.00, 0.00, 0.00, 0
306485, -31661.94, -35291.93, 0.00, 0.00, 0.00, 0.00, 0.00, 0.00, 0
306486, -31612.81, -35154.91, 0.00, 0.00, 0.00, 0.00, 0.00, 0.00, 0
306487, -31676.47, -35417.16, 0.00, 0.00, 0.00, 0.00, 0.00, 0.00, 0
306488, -31729.98, -35608.29, 0.00, 0.00, 0.00, 0.00, 0.00, 0.00, 0
306489, -31659.23, -35375.99, 0.00, 0.00, 0.00, 0.00, 0.00, 0.00, 0
306490, -31586.39, -35168.55, 0.00, 0.00, 0.00, 0.00, 0.00, 0.00, 0
306491, -31631.32, -35344.16, 0.00, 0.00, 0.00, 0.00, 0.00, 0.00, 0
306492, -31697.14, -35545.24, 0.00, 0.00, 0.00, 0.00, 0.00, 0.00, 0
306493, -31652.71, -35393.47, 0.00, 0.00, 0.00, 0.00, 0.00, 0.00, 0
306494, -31561.71, -35168.79, 0.00, 0.00, 0.00, 0.00, 0.00, 0.00, 0
306495, -31577.20, -35289.89, 0.00, 0.00, 0.00, 0.00, 0.00, 0.00, 0
306496, -31657.38, -35531.43, 0.00, 0.00, 0.00, 0.00, 0.00, 0.00, 0
306497, -31641.80, -35424.25, 0.00, 0.00, 0.00, 0.00, 0.00, 0.00, 0
306498, -31538.73, -35155.25, 0.00, 0.00, 0.00, 0.00, 0.00, 0.00, 0
306499, -31537.73, -35233.21, 0.00, 0.00, 0.00, 0.00, 0.00, 0.00, 0
306500, -31626.02, -35517.46, 0.00, 0.00, 0.00, 0.00, 0.00, 0.00, 0
306501, -31616.81, -35464.98, 0.00, 0.00, 0.00, 0.00, 0.00, 0.00, 0
306502, -31516.16, -35160.45, 0.00, 0.00, 0.00, 0.00, 0.00, 0.00, 0
306503, -31506.91, -35161.77, 0.00, 0.00, 0.00, 0.00, 0.00, 0.00, 0
306504, -31578.07, -35458.23, 0.00, 0.00, 0.00, 0.00, 0.00, 0.00, 0
306505, -31600.76, -35533.28, 0.00, 0.00, 0.00, 0.00, 0.00, 0.00, 0
306506, -31524.23, -35261.78, 0.00, 0.00, 0.00, 0.00, 0.00, 0.00, 0
306507, -31479.57, -35182.76, 0.00, 0.00, 0.00, 0.00, 0.00, 0.00, 0
306508, -31540.68, -35431.74, 0.00, 0.00, 0.00, 0.00, 0.00, 0.00, 0
306509, -31576.38, -35514.06, 0.00, 0.00, 0.00, 0.00, 0.00, 0.00, 0
306510, -31499.44, -35238.69, 0.00, 0.00, 0.00, 0.00, 0.00, 0.00, 0
306511, -31448.39, -35144.54, 0.00, 0.00, 0.00, 0.00, 0.00, 0.00, 0
306512, -31501.34, -35394.16, 0.00, 0.00, 0.00, 0.00, 0.00, 0.00, 0
306513, -31559.52, -35568.69, 0.00, 0.00, 0.00, 0.00, 0.00, 0.00, 0
306514, -31510.86, -35346.54, 0.00, 0.00, 0.00, 0.00, 0.00, 0.00, 0
306515, -31436.56, -35114.10, 0.00, 0.00, 0.00, 0.00, 0.00, 0.00, 0
306516, -31467.54, -35286.18, 0.00, 0.00, 0.00, 0.00, 0.00, 0.00, 0
306517, -31534.82, -35523.65, 0.00, 0.00, 0.00, 0.00, 0.00, 0.00, 0
306518, -31505.83, -35367.21, 0.00, 0.00, 0.00, 0.00, 0.00, 0.00, 0
306519, -31426.71, -35135.82, 0.00, 0.00, 0.00, 0.00, 0.00, 0.00, 0
306520, -31436.34, -35252.84, 0.00, 0.00, 0.00, 0.00, 0.00, 0.00, 0
306521, -31505.79, -35485.32, 0.00, 0.00, 0.00, 0.00, 0.00, 0.00, 0
306522, -31499.15, -35392.29, 0.00, 0.00, 0.00, 0.00, 0.00, 0.00, 0
306523, -31439.34, -35162.06, 0.00, 0.00, 0.00, 0.00, 0.00, 0.00, 0
306524, -31429.59, -35229.57, 0.00, 0.00, 0.00, 0.00, 0.00, 0.00, 0
306525, -31489.00, -35492.87, 0.00, 0.00, 0.00, 0.00, 0.00, 0.00, 0
306526, -31505.36, -35477.43, 0.00, 0.00, 0.00, 0.00, 0.00, 0.00, 0
306527, -31446.76, -35206.93, 0.00, 0.00, 0.00, 0.00, 0.00, 0.00, 0
306528, -31413.61, -35193.38, 0.00, 0.00, 0.00, 0.00, 0.00, 0.00, 0
306529, -31463.74, -35449.93, 0.00, 0.00, 0.00, 0.00, 0.00, 0.00, 0
306530, -31504.02, -35508.02, 0.00, 0.00, 0.00, 0.00, 0.00, 0.00, 0
306531, -31446.06, -35244.36, 0.00, 0.00, 0.00, 0.00, 0.00, 0.00, 0
306532, -31402.54, -35148.92, 0.00, 0.00, 0.00, 0.00, 0.00, 0.00, 0
306533, -31447.83, -35393.81, 0.00, 0.00, 0.00, 0.00, 0.00, 0.00, 0
306534, -31497.90, -35503.78, 0.00, 0.00, 0.00, 0.00, 0.00, 0.00, 0
306535, -31459.54, -35259.18, 0.00, 0.00, 0.00, 0.00, 0.00, 0.00, 0
306536, -31405.50, -35121.14, 0.00, 0.00, 0.00, 0.00, 0.00, 0.00, 0
306537, -31432.38, -35314.13, 0.00, 0.00, 0.00, 0.00, 0.00, 0.00, 0
306538, -31493.03, -35484.60, 0.00, 0.00, 0.00, 0.00, 0.00, 0.00, 0
306539, -31464.21, -35284.04, 0.00, 0.00, 0.00, 0.00, 0.00, 0.00, 0
306540, -31399.13, -35115.53, 0.00, 0.00, 0.00, 0.00, 0.00, 0.00, 0
306541, -31414.30, -35299.08, 0.00, 0.00, 0.00, 0.00, 0.00, 0.00, 0
306542, -31479.48, -35491.17, 0.00, 0.00, 0.00, 0.00, 0.00, 0.00, 0
306543, -31477.76, -35353.24, 0.00, 0.00, 0.00, 0.00, 0.00, 0.00, 0
306544, -31409.16, -35114.50, 0.00, 0.00, 0.00, 0.00, 0.00, 0.00, 0
306545, -31402.05, -35198.25, 0.00, 0.00, 0.00, 0.00, 0.00, 0.00, 0
306546, -31456.99, -35482.39, 0.00, 0.00, 0.00, 0.00, 0.00, 0.00, 0
306547, -31472.95, -35463.25, 0.00, 0.00, 0.00, 0.00, 0.00, 0.00, 0
306548, -31427.49, -35209.99, 0.00, 0.00, 0.00, 0.00, 0.00, 0.00, 0
306549, -31414.06, -35232.07, 0.00, 0.00, 0.00, 0.00, 0.00, 0.00, 0
306550, -31460.41, -35497.61, 0.00, 0.00, 0.00, 0.00, 0.00, 0.00, 0
306551, -31485.58, -35502.41, 0.00, 0.00, 0.00, 0.00, 0.00, 0.00, 0
306552, -31431.00, -35233.55, 0.00, 0.00, 0.00, 0.00, 0.00, 0.00, 0
306553, -31398.48, -35184.86, 0.00, 0.00, 0.00, 0.00, 0.00, 0.00, 0
306554, -31433.50, -35425.08, 0.00, 0.00, 0.00, 0.00, 0.00, 0.00, 0
306555, -31472.60, -35493.07, 0.00, 0.00, 0.00, 0.00, 0.00, 0.00, 0
306556, -31441.39, -35235.94, 0.00, 0.00, 0.00, 0.00, 0.00, 0.00, 0
306557, -31395.57, -35127.46, 0.00, 0.00, 0.00, 0.00, 0.00, 0.00, 0
306558, -31418.71, -35359.79, 0.00, 0.00, 0.00, 0.00, 0.00, 0.00, 0
306559, -31464.37, -35491.93, 0.00, 0.00, 0.00, 0.00, 0.00, 0.00, 0
306560, -31452.75, -35283.30, 0.00, 0.00, 0.00, 0.00, 0.00, 0.00, 0
306561, -31408.94, -35127.75, 0.00, 0.00, 0.00, 0.00, 0.00, 0.00, 0
306562, -31410.39, -35294.43, 0.00, 0.00, 0.00, 0.00, 0.00, 0.00, 0
306563, -31452.26, -35468.86, 0.00, 0.00, 0.00, 0.00, 0.00, 0.00, 0
306564, -31455.59, -35328.68, 0.00, 0.00, 0.00, 0.00, 0.00, 0.00, 0
306565, -31415.73, -35135.36, 0.00, 0.00, 0.00, 0.00, 0.00, 0.00, 0
