%OpenBCI Raw EEG Data
%
%Sample Rate = 250.0 Hz
%First Column = SampleIndex
%Other Columns = EEG data in microvolts with optional columns at end being unscaled Aux data
360182, -30078.56, -31164.23, 0.00, 0.00, 0.00, 0.00, 0.00, 0.00, 0
360183, -30061.69, -31118.90, 0.00, 0.00, 0.00, 0.00, 0.00, 0.00, 0
360184, -30081.58, -31222.01, 0.00, 0.00, 0.00, 0.00, 0.00, 0.00, 0
360185, -30096.44, -31294.36, 0.00, 0.00, 0.00, 0.00, 0.00, 0.00, 0
360186, -30068.37, -31196.84, 0.00, 0.00, 0.00, 0.00, 0.00, 0.00, 0
360187, -30051.16, -31121.61, 0.00, 0.00, 0.00, 0.00, 0.00, 0.00, 0
360188, -30070.83, -31209.49, 0.00, 0.00, 0.00, 0.00, 0.00, 0.00, 0
360189, -30086.61, -31288.37, 0.00, 0.00, 0.00, 0.00, 0.00, 0.00, 0
360190, -30065.58, -31213.92, 0.00, 0.00, 0.00, 0.00, 0.00, 0.00, 0
360191, -30050.64, -31114.01, 0.00, 0.00, 0.00, 0.00, 0.00, 0.00, 0
360192, -30068.95, -31176.97, 0.00, 0.00, 0.00, 0.00, 0.00, 0.00, 0
360193, -30093.74, -31302.97, 0.00, 0.00, 0.00, 0.00, 0.00, 0.00, 0
360194, -30081.24, -31265.64, 0.00, 0.00, 0.00, 0.00, 0.00, 0.00, 0
360195, -30060.97, -31147.74, 0.00, 0.00, 0.00, 0.00, 0.00, 0.00, 0
360196, -30068.48, -31159.27, 0.00, 0.00, 0.00, 0.00, 0.00, 0.00, 0
360197, -30095.04, -31271.19, 0.00, 0.00, 0.00, 0.00, 0.00, 0.00, 0
360198, -30091.24, -31247.67, 0.00, 0.00, 0.00, 0.00, 0.00, 0.00, 0
360199, -30066.74, -31132.38, 0.00, 0.00, 0.00, 0.00, 0.00, 0.00, 0
360200, -30075.19, -31152.23, 0.00, 0.00, 0.00, 0.00, 0.00, 0.00, 0
360201, -30103.87, -31265.08, 0.00, 0.00, 0.00, 0.00, 0.00, 0.00, 0
360202, -30104.31, -31254.53, 0.00, 0.00, 0.00, 0.00, 0.00, 0.00, 0
360203, -30076.69, -31136.11, 0.00, 0.00, 0.00, 0.00, 0.00, 0.00, 0
360204, -30073.73, -31135.89, 0.00, 0.00, 0.00, 0.00, 0.00, 0.00, 0
360205, -30102.59, -31275.25, 0.00, 0.00, 0.00, 0.00, 0.00, 0.00, 0
360206, -30114.57, -31319.20, 0.00, 0.00, 0.00, 0.00, 0.00, 0.00, 0
360207, -30085.80, -31179.63, 0.00, 0.00, 0.00, 0.00, 0.00, 0.00, 0
360208, -30071.83, -31100.93, 0.00, 0.00, 0.00, 0.00, 0.00, 0.00, 0
360209, -30091.64, -31209.56, 0.00, 0.00, 0.00, 0.00, 0.00, 0.00, 0
360210, -30109.83, -31283.57, 0.00, 0.00, 0.00, 0.00, 0.00, 0.00, 0
360211, -30089.83, -31189.67, 0.00, 0.00, 0.00, 0.00, 0.00, 0.00, 0
360212, -30070.00, -31088.75, 0.00, 0.00, 0.00, 0.00, 0.00, 0.00, 0
360213, -30082.92, -31204.80, 0.00, 0.00, 0.00, 0.00, 0.00, 0.00, 0
360214, -30113.63, -31347.76, 0.00, 0.00, 0.00, 0.00, 0.00, 0.00, 0
360215, -30105.83, -31246.13, 0.00, 0.00, 0.00, 0.00, 0.00, 0.00, 0
360216, -30078.90, -31093.11, 0.00, 0.00, 0.00, 0.00, 0.00, 0.00, 0
360217, -30077.71, -31149.26, 0.00, 0.00, 0.00, 0.00, 0.00, 0.00, 0
360218, -30098.77, -31305.67, 0.00, 0.00, 0.00, 0.00, 0.00, 0.00, 0
360219, -30099.28, -31251.25, 0.00, 0.00, 0.00, 0.00, 0.00, 0.00, 0
360220, -30075.46, -31093.00, 0.00, 0.00, 0.00, 0.00, 0.00, 0.00, 0
360221, -30078.54, -31161.73, 0.00, 0.00, 0.00, 0.00, 0.00, 0.00, 0
360222, -30102.68, -31340.21, 0.00, 0.00, 0.00, 0.00, 0.00, 0.00, 0
360223, -30102.79, -31292.44, 0.00, 0.00, 0.00, 0.00, 0.00, 0.00, 0
360224, -30075.50, -31115.62, 0.00, 0.00, 0.00, 0.00, 0.00, 0.00, 0
360225, -30068.82, -31118.46, 0.00, 0.00, 0.00, 0.00, 0.00, 0.00, 0
360226, -30090.79, -31300.62, 0.00, 0.00, 0.00, 0.00, 0.00, 0.00, 0
360227, -30106.21, -31331.42, 0.00, 0.00, 0.00, 0.00, 0.00, 0.00, 0
360228, -30081.69, -31152.01, 0.00, 0.00, 0.00, 0.00, 0.00, 0.00, 0
360229, -30064.30, -31099.21, 0.00, 0.00, 0.00, 0.00, 0.00, 0.00, 0
360230, -30081.45, -31271.70, 0.00, 0.00, 0.00, 0.00, 0.00, 0.00, 0
360231, -30106.81, -31336.41, 0.00, 0.00, 0.00, 0.00, 0.00, 0.00, 0
360232, -30090.68, -31153.44, 0.00, 0.00, 0.00, 0.00, 0.00, 0.00, 0
360233, -30064.93, -31055.85, 0.00, 0.00, 0.00, 0.00, 0.00, 0.00, 0
360234, -30077.49, -31226.97, 0.00, 0.00, 0.00, 0.00, 0.00, 0.00, 0
360235, -30104.20, -31336.34, 0.00, 0.00, 0.00, 0.00, 0.00, 0.00, 0
360236, -30098.66, -31192.78, 0.00, 0.00, 0.00, 0.00, 0.00, 0.00, 0
360237, -30079.05, -31079.16, 0.00, 0.00, 0.00, 0.00, 0.00, 0.00, 0
360238, -30087.93, -31217.23, 0.00, 0.00, 0.00, 0.00, 0.00, 0.00, 0
360239, -30114.64, -31368.88, 0.00, 0.00, 0.00, 0.00, 0.00, 0.00, 0
360240, -30113.32, -31238.13, 0.00, 0.00, 0.00, 0.00, 0.00, 0.00, 0
360241, -30079.66, -31059.87, 0.00, 0.00, 0.00, 0.00, 0.00, 0.00, 0
360242, -30075.59, -31157.24, 0.00, 0.00, 0.00, 0.00, 0.00, 0.00, 0
360243, -30110.75, -31349.82, 0.00, 0.00, 0.00, 0.00, 0.00, 0.00, 0
360244, -30112.67, -31255.85, 0.00, 0.00, 0.00, 0.00, 0.00, 0.00, 0
360245, -30075.99, -31060.90, 0.00, 0.00, 0.00, 0.00, 0.00, 0.00, 0
360246, -30062.96, -31124.85, 0.00, 0.00, 0.00, 0.00, 0.00, 0.00, 0
360247, -30089.92, -31324.65, 0.00, 0.00, 0.00, 0.00, 0.00, 0.00, 0
360248, -30105.00, -31296.04, 0.00, 0.00, 0.00, 0.00, 0.00, 0.00, 0
360249, -30079.66, -31097.24, 0.00, 0.00, 0.00, 0.00, 0.00, 0.00, 0
360250, -30060.05, -31115.01, 0.00, 0.00, 0.00, 0.00, 0.00, 0.00, 0
360251, -30080.78, -31324.76, 0.00, 0.00, 0.00, 0.00, 0.00, 0.00, 0
360252, -30110.57, -31323.78, 0.00, 0.00, 0.00, 0.00, 0.00, 0.00, 0
360253, -30091.77, -31101.51, 0.00, 0.00, 0.00, 0.00, 0.00, 0.00, 0
360254, -30065.55, -31062.82, 0.00, 0.00, 0.00, 0.00, 0.00, 0.00, 0
360255, -30075.66, -31274.65, 0.00, 0.00, 0.00, 0.00, 0.00, 0.00, 0
360256, -30105.38, -31350.76, 0.00, 0.00, 0.00, 0.00, 0.00, 0.00, 0
360257, -30096.42, -31145.66, 0.00, 0.00, 0.00, 0.00, 0.00, 0.00, 0
360258, -30066.58, -31067.38, 0.00, 0.00, 0.00, 0.00, 0.00, 0.00, 0
360259, -30071.75, -31272.35, 0.00, 0.00, 0.00, 0.00, 0.00, 0.00, 0
360260, -30107.11, -31396.20, 0.00, 0.00, 0.00, 0.00, 0.00, 0.00, 0
360261, -30106.73, -31198.81, 0.00, 0.00, 0.00, 0.00, 0.00, 0.00, 0
360262, -30077.56, -31062.26, 0.00, 0.00, 0.00, 0.00, 0.00, 0.00, 0
360263, -30075.88, -31234.88, 0.00, 0.00, 0.00, 0.00, 0.00, 0.00, 0
360264, -30115.53, -31420.67, 0.00, 0.00, 0.00, 0.00, 0.00, 0.00, 0
360265, -30126.02, -31259.63, 0.00, 0.00, 0.00, 0.00, 0.00, 0.00, 0
360266, -30088.49, -31047.27, 0.00, 0.00, 0.00, 0.00, 0.00, 0.00, 0
360267, -30073.22, -31180.24, 0.00, 0.00, 0.00, 0.00, 0.00, 0.00, 0
360268, -30109.32, -31411.89, 0.00, 0.00, 0.00, 0.00, 0.00, 0.00, 0
360269, -30128.09, -31310.26, 0.00, 0.00, 0.00, 0.00, 0.00, 0.00, 0
360270, -30099.35, -31065.84, 0.00, 0.00, 0.00, 0.00, 0.00, 0.00, 0
360271, -30077.60, -31145.70, 0.00, 0.00, 0.00, 0.00, 0.00, 0.00, 0
360272, -30104.56, -31416.27, 0.00, 0.00, 0.00, 0.00, 0.00, 0.00, 0
360273, -30136.45, -31360.95, 0.00, 0.00, 0.00, 0.00, 0.00, 0.00, 0
360274, -30107.15, -31057.84, 0.00, 0.00, 0.00, 0.00, 0.00, 0.00, 0
360275, -30078.23, -31080.70, 0.00, 0.00, 0.00, 0.00, 0.00, 0.00, 0
360276, -30105.77, -31394.79, 0.00, 0.00, 0.00, 0.00, 0.00, 0.00, 0
360277, -30141.28, -31414.32, 0.00, 0.00, 0.00, 0.00, 0.00, 0.00, 0
360278, -30120.45, -31113.94, 0.00, 0.00, 0.00, 0.00, 0.00, 0.00, 0
360279, -30077.15, -31084.28, 0.00, 0.00, 0.00, 0.00, 0.00, 0.00, 0
360280, -30091.06, -31374.38, 0.00, 0.00, 0.00, 0.00, 0.00, 0.00, 0
360281, -30144.08, -31474.81, 0.00, 0.00, 0.00, 0.00, 0.00, 0.00, 0
360282, -30136.10, -31178.25, 0.00, 0.00, 0.00, 0.00, 0.00, 0.00, 0
360283, -30087.84, -31050.01, 0.00, 0.00, 0.00, 0.00, 0.00, 0.00, 0
360284, -30095.42, -31322.82, 0.00, 0.00, 0.00, 0.00, 0.00, 0.00, 0
360285, -30149.71, -31494.63, 0.00, 0.00, 0.00, 0.00, 0.00, 0.00, 0
360286, -30152.81, -31226.46, 0.00, 0.00, 0.00, 0.00, 0.00, 0.00, 0
360287, -30101.90, -31019.37, 0.00, 0.00, 0.00, 0.00, 0.00, 0.00, 0
360288, -30092.58, -31253.59, 0.00, 0.00, 0.00, 0.00, 0.00, 0.00, 0
360289, -30141.68, -31506.55, 0.00, 0.00, 0.00, 0.00, 0.00, 0.00, 0
360290, -30157.44, -31295.15, 0.00, 0.00, 0.00, 0.00, 0.00, 0.00, 0
360291, -30111.26, -31029.81, 0.00, 0.00, 0.00, 0.00, 0.00, 0.00, 0
360292, -30098.97, -31193.58, 0.00, 0.00, 0.00, 0.00, 0.00, 0.00, 0
360293, -30144.93, -31496.87, 0.00, 0.00, 0.00, 0.00, 0.00, 0.00, 0
360294, -30161.76, -31360.95, 0.00, 0.00, 0.00, 0.00, 0.00, 0.00, 0
360295, -30106.26, -31017.54, 0.00, 0.00, 0.00, 0.00, 0.00, 0.00, 0
360296, -30079.19, -31117.96, 0.00, 0.00, 0.00, 0.00, 0.00, 0.00, 0
360297, -30128.50, -31489.07, 0.00, 0.00, 0.00, 0.00, 0.00, 0.00, 0
360298, -30165.71, -31435.83, 0.00, 0.00, 0.00, 0.00, 0.00, 0.00, 0
360299, -30121.48, -31073.62, 0.00, 0.00, 0.00, 0.00, 0.00, 0.00, 0
360300, -30074.40, -31090.96, 0.00, 0.00, 0.00, 0.00, 0.00, 0.00, 0
360301, -30113.43, -31436.50, 0.00, 0.00, 0.00, 0.00, 0.00, 0.00, 0
360302, -30160.24, -31460.17, 0.00, 0.00, 0.00, 0.00, 0.00, 0.00, 0
360303, -30114.15, -31095.39, 0.00, 0.00, 0.00, 0.00, 0.00, 0.00, 0
360304, -30054.96, -31017.27, 0.00, 0.00, 0.00, 0.00, 0.00, 0.00, 0
360305, -30085.63, -31356.68, 0.00, 0.00, 0.00, 0.00, 0.00, 0.00, 0
360306, -30147.81, -31489.94, 0.00, 0.00, 0.00, 0.00, 0.00, 0.00, 0
360307, -30119.78, -31150.96, 0.00, 0.00, 0.00, 0.00, 0.00, 0.00, 0
360308, -30049.01, -30979.32, 0.00, 0.00, 0.00, 0.00, 0.00, 0.00, 0
360309, -30064.35, -31272.62, 0.00, 0.00, 0.00, 0.00, 0.00, 0.00, 0
360310, -30139.25, -31502.99, 0.00, 0.00, 0.00, 0.00, 0.00, 0.00, 0
360311, -30128.05, -31223.53, 0.00, 0.00, 0.00, 0.00, 0.00, 0.00, 0
360312, -30051.52, -30978.11, 0.00, 0.00, 0.00, 0.00, 0.00, 0.00, 0
360313, -30058.54, -31244.99, 0.00, 0.00, 0.00, 0.00, 0.00, 0.00, 0
360314, -30134.93, -31534.20, 0.00, 0.00, 0.00, 0.00, 0.00, 0.00, 0
360315, -30136.36, -31290.74, 0.00, 0.00, 0.00, 0.00, 0.00, 0.00, 0
360316, -30055.65, -30944.65, 0.00, 0.00, 0.00, 0.00, 0.00, 0.00, 0
360317, -30041.59, -31124.40, 0.00, 0.00, 0.00, 0.00, 0.00, 0.00, 0
360318, -30117.68, -31497.12, 0.00, 0.00, 0.00, 0.00, 0.00, 0.00, 0
360319, -30138.11, -31358.42, 0.00, 0.00, 0.00, 0.00, 0.00, 0.00, 0
360320, -30057.93, -30973.41, 0.00, 0.00, 0.00, 0.00, 0.00, 0.00, 0
360321, -30029.30, -31079.09, 0.00, 0.00, 0.00, 0.00, 0.00, 0.00, 0
360322, -30106.57, -31466.85, 0.00, 0.00, 0.00, 0.00, 0.00, 0.00, 0
360323, -30147.09, -31399.97, 0.00, 0.00, 0.00, 0.00, 0.00, 0.00, 0
360324, -30071.01, -31010.12, 0.00, 0.00, 0.00, 0.00, 0.00, 0.00, 0
360325, -30024.85, -31016.53, 0.00, 0.00, 0.00, 0.00, 0.00, 0.00, 0
360326, -30089.89, -31399.66, 0.00, 0.00, 0.00, 0.00, 0.00, 0.00, 0
360327, -30151.27, -31450.36, 0.00, 0.00, 0.00, 0.00, 0.00, 0.00, 0
360328, -30085.54, -31058.57, 0.00, 0.00, 0.00, 0.00, 0.00, 0.00, 0
360329, -30021.25, -30971.25, 0.00, 0.00, 0.00, 0.00, 0.00, 0.00, 0
360330, -30073.60, -31343.76, 0.00, 0.00, 0.00, 0.00, 0.00, 0.00, 0
360331, -30146.47, -31486.50, 0.00, 0.00, 0.00, 0.00, 0.00, 0.00, 0
360332, -30098.05, -31121.32, 0.00, 0.00, 0.00, 0.00, 0.00, 0.00, 0
360333, -30021.10, -30924.82, 0.00, 0.00, 0.00, 0.00, 0.00, 0.00, 0
360334, -30054.36, -31233.75, 0.00, 0.00, 0.00, 0.00, 0.00, 0.00, 0
360335, -30139.02, -31505.39, 0.00, 0.00, 0.00, 0.00, 0.00, 0.00, 0
360336, -30111.49, -31207.53, 0.00, 0.00, 0.00, 0.00, 0.00, 0.00, 0
360337, -30024.18, -30902.52, 0.00, 0.00, 0.00, 0.00, 0.00, 0.00, 0
360338, -30042.22, -31162.38, 0.00, 0.00, 0.00, 0.00, 0.00, 0.00, 0
360339, -30133.19, -31499.40, 0.00, 0.00, 0.00, 0.00, 0.00, 0.00, 0
360340, -30123.54, -31263.65, 0.00, 0.00, 0.00, 0.00, 0.00, 0.00, 0
360341, -30029.88, -30920.80, 0.00, 0.00, 0.00, 0.00, 0.00, 0.00, 0
360342, -30028.76, -31107.68, 0.00, 0.00, 0.00, 0.00, 0.00, 0.00, 0
360343, -30120.00, -31498.35, 0.00, 0.00, 0.00, 0.00, 0.00, 0.00, 0
360344, -30131.54, -31363.23, 0.00, 0.00, 0.00, 0.00, 0.00, 0.00, 0
360345, -30042.06, -30949.05, 0.00, 0.00, 0.00, 0.00, 0.00, 0.00, 0
360346, -30022.24, -31027.69, 0.00, 0.00, 0.00, 0.00, 0.00, 0.00, 0
360347, -30112.25, -31431.36, 0.00, 0.00, 0.00, 0.00, 0.00, 0.00, 0
360348, -30152.50, -31396.91, 0.00, 0.00, 0.00, 0.00, 0.00, 0.00, 0
360349, -30064.53, -30982.69, 0.00, 0.00, 0.00, 0.00, 0.00, 0.00, 0
360350, -30019.87, -30974.13, 0.00, 0.00, 0.00, 0.00, 0.00, 0.00, 0
360351, -30096.49, -31378.12, 0.00, 0.00, 0.00, 0.00, 0.00, 0.00, 0
360352, -30150.71, -31445.84, 0.00, 0.00, 0.00, 0.00, 0.00, 0.00, 0
360353, -30078.52, -31034.86, 0.00, 0.00, 0.00, 0.00, 0.00, 0.00, 0
360354, -30024.58, -30912.33, 0.00, 0.00, 0.00, 0.00, 0.00, 0.00, 0
360355, -30089.40, -31283.90, 0.00, 0.00, 0.00, 0.00, 0.00, 0.00, 0
360356, -30154.18, -31478.05, 0.00, 0.00, 0.00, 0.00, 0.00, 0.00, 0
360357, -30092.06, -31121.25, 0.00, 0.00, 0.00, 0.00, 0.00, 0.00, 0
360358, -30018.64, -30906.56, 0.00, 0.00, 0.00, 0.00, 0.00, 0.00, 0
360359, -30072.53, -31230.13, 0.00, 0.00, 0.00, 0.00, 0.00, 0.00, 0
360360, -30167.57, -31501.16, 0.00, 0.00, 0.00, 0.00, 0.00, 0.00, 0
360361, -30130.96, -31197.98, 0.00, 0.00, 0.00, 0.00, 0.00, 0.00, 0
360362, -30029.21, -30902.49, 0.00, 0.00, 0.00, 0.00, 0.00, 0.00, 0
360363, -30061.04, -31133.21, 0.00, 0.00, 0.00, 0.00, 0.00, 0.00, 0
360364, -30167.77, -31461.93, 0.00, 0.00, 0.00, 0.00, 0.00, 0.00, 0
360365, -30161.49, -31288.62, 0.00, 0.00, 0.00, 0.00, 0.00, 0.00, 0
360366, -30065.53, -30991.86, 0.00, 0.00, 0.00, 0.00, 0.00, 0.00, 0
360367, -30072.57, -31147.78, 0.00, 0.00, 0.00, 0.00, 0.00, 0.00, 0
360368, -30176.33, -31526.08, 0.00, 0.00, 0.00, 0.00, 0.00, 0.00, 0
360369, -30187.08, -31394.77, 0.00, 0.00, 0.00, 0.00, 0.00, 0.00, 0
360370, -30079.88, -30971.47, 0.00, 0.00, 0.00, 0.00, 0.00, 0.00, 0
360371, -30059.54, -31053.88, 0.00, 0.00, 0.00, 0.00, 0.00, 0.00, 0
360372, -30156.39, -31481.16, 0.00, 0.00, 0.00, 0.00, 0.00, 0.00, 0
360373, -30195.24, -31460.08, 0.00, 0.00, 0.00, 0.00, 0.00, 0.00, 0
360374, -30106.61, -31026.05, 0.00, 0.00, 0.00, 0.00, 0.00, 0.00, 0
360375, -30062.36, -30996.19, 0.00, 0.00, 0.00, 0.00, 0.00, 0.00, 0
360376, -30146.42, -31406.99, 0.00, 0.00, 0.00, 0.00, 0.00, 0.00, 0
360377, -30212.29, -31491.28, 0.00, 0.00, 0.00, 0.00, 0.00, 0.00, 0
360378, -30129.10, -31064.39, 0.00, 0.00, 0.00, 0.00, 0.00, 0.00, 0
360379, -30055.92, -30939.66, 0.00, 0.00, 0.00, 0.00, 0.00, 0.00, 0
360380, -30122.17, -31322.48, 0.00, 0.00, 0.00, 0.00, 0.00, 0.00, 0
360381, -30206.91, -31522.24, 0.00, 0.00, 0.00, 0.00, 0.00, 0.00, 0
360382, -30148.72, -31148.85, 0.00, 0.00, 0.00, 0.00, 0.00, 0.00, 0
360383, -30064.03, -30900.75, 0.00, 0.00, 0.00, 0.00, 0.00, 0.00, 0
360384, -30110.26, -31221.85, 0.00, 0.00, 0.00, 0.00, 0.00, 0.00, 0
360385, -30207.40, -31549.51, 0.00, 0.00, 0.00, 0.00, 0.00, 0.00, 0
360386, -30168.80, -31268.68, 0.00, 0.00, 0.00, 0.00, 0.00, 0.00, 0
360387, -30065.96, -30924.33, 0.00, 0.00, 0.00, 0.00, 0.00, 0.00, 0
360388, -30085.94, -31143.11, 0.00, 0.00, 0.00, 0.00, 0.00, 0.00, 0
360389, -30189.83, -31506.19, 0.00, 0.00, 0.00, 0.00, 0.00, 0.00, 0
360390, -30181.60, -31311.42, 0.00, 0.00, 0.00, 0.00, 0.00, 0.00, 0
360391, -30070.11, -30926.12, 0.00, 0.00, 0.00, 0.00, 0.00, 0.00, 0
360392, -30069.64, -31099.32, 0.00, 0.00, 0.00, 0.00, 0.00, 0.00, 0
360393, -30179.57, -31521.59, 0.00, 0.00, 0.00, 0.00, 0.00, 0.00, 0
360394, -30200.04, -31407.57, 0.00, 0.00, 0.00, 0.00, 0.00, 0.00, 0
360395, -30094.86, -30983.09, 0.00, 0.00, 0.00, 0.00, 0.00, 0.00, 0
360396, -30068.77, -31056.05, 0.00, 0.00, 0.00, 0.00, 0.00, 0.00, 0
360397, -30164.33, -31484.13, 0.00, 0.00, 0.00, 0.00, 0.00, 0.00, 0
360398, -30207.42, -31477.71, 0.00, 0.00, 0.00, 0.00, 0.00, 0.00, 0
360399, -30107.78, -31032.20, 0.00, 0.00, 0.00, 0.00, 0.00, 0.00, 0
360400, -30053.01, -30979.56, 0.00, 0.00, 0.00, 0.00, 0.00, 0.00, 0
360401, -30132.47, -31398.54, 0.00, 0.00, 0.00, 0.00, 0.00, 0.00, 0
360402, -30198.68, -31509.97, 0.00, 0.00, 0.00, 0.00, 0.00, 0.00, 0
360403, -30126.35, -31071.20, 0.00, 0.00, 0.00, 0.00, 0.00, 0.00, 0
360404, -30052.50, -30904.57, 0.00, 0.00, 0.00, 0.00, 0.00, 0.00, 0
360405, -30122.17, -31317.01, 0.00, 0.00, 0.00, 0.00, 0.00, 0.00, 0
360406, -30214.84, -31540.17, 0.00, 0.00, 0.00, 0.00, 0.00, 0.00, 0
360407, -30161.76, -31160.48, 0.00, 0.00, 0.00, 0.00, 0.00, 0.00, 0
360408, -30077.11, -30891.65, 0.00, 0.00, 0.00, 0.00, 0.00, 0.00, 0
360409, -30121.43, -31222.90, 0.00, 0.00, 0.00, 0.00, 0.00, 0.00, 0
360410, -30213.68, -31567.86, 0.00, 0.00, 0.00, 0.00, 0.00, 0.00, 0
360411, -30170.81, -31279.32, 0.00, 0.00, 0.00, 0.00, 0.00, 0.00, 0
360412, -30064.12, -30922.59, 0.00, 0.00, 0.00, 0.00, 0.00, 0.00, 0
360413, -30087.03, -31146.26, 0.00, 0.00, 0.00, 0.00, 0.00, 0.00, 0
360414, -30198.08, -31533.88, 0.00, 0.00, 0.00, 0.00, 0.00, 0.00, 0
360415, -30195.11, -31351.94, 0.00, 0.00, 0.00, 0.00, 0.00, 0.00, 0
360416, -30082.72, -30929.16, 0.00, 0.00, 0.00, 0.00, 0.00, 0.00, 0
360417, -30075.97, -31066.04, 0.00, 0.00, 0.00, 0.00, 0.00, 0.00, 0
360418, -30182.16, -31507.11, 0.00, 0.00, 0.00, 0.00, 0.00, 0.00, 0
360419, -30205.86, -31428.16, 0.00, 0.00, 0.00, 0.00, 0.00, 0.00, 0
360420, -30101.32, -30980.34, 0.00, 0.00, 0.00, 0.00, 0.00, 0.00, 0
360421, -30066.20, -31011.64, 0.00, 0.00, 0.00, 0.00, 0.00, 0.00, 0
360422, -30153.37, -31449.22, 0.00, 0.00, 0.00, 0.00, 0.00, 0.00, 0
360423, -30203.60, -31475.88, 0.00, 0.00, 0.00, 0.00, 0.00, 0.00, 0
360424, -30112.63, -31028.51, 0.00, 0.00, 0.00, 0.00, 0.00, 0.00, 0
360425, -30059.79, -30953.68, 0.00, 0.00, 0.00, 0.00, 0.00, 0.00, 0
360426, -30143.65, -31373.27, 0.00, 0.00, 0.00, 0.00, 0.00, 0.00, 0
360427, -30219.09, -31517.57, 0.00, 0.00, 0.00, 0.00, 0.00, 0.00, 0
360428, -30139.92, -31095.37, 0.00, 0.00, 0.00, 0.00, 0.00, 0.00, 0
360429, -30056.88, -30898.34, 0.00, 0.00, 0.00, 0.00, 0.00, 0.00, 0
360430, -30118.44, -31268.03, 0.00, 0.00, 0.00, 0.00, 0.00, 0.00, 0
360431, -30213.34, -31527.31, 0.00, 0.00, 0.00, 0.00, 0.00, 0.00, 0
360432, -30162.74, -31173.78, 0.00, 0.00, 0.00, 0.00, 0.00, 0.00, 0
360433, -30065.17, -30883.70, 0.00, 0.00, 0.00, 0.00, 0.00, 0.00, 0
360434, -30099.62, -31183.79, 0.00, 0.00, 0.00, 0.00, 0.00, 0.00, 0
360435, -30208.58, -31520.67, 0.00, 0.00, 0.00, 0.00, 0.00, 0.00, 0
360436, -30192.11, -31251.45, 0.00, 0.00, 0.00, 0.00, 0.00, 0.00, 0
360437, -30084.64, -30877.23, 0.00, 0.00, 0.00, 0.00, 0.00, 0.00, 0
360438, -30093.40, -31077.10, 0.00, 0.00, 0.00, 0.00, 0.00, 0.00, 0
360439, -30197.65, -31490.72, 0.00, 0.00, 0.00, 0.00, 0.00, 0.00, 0
360440, -30195.87, -31328.83, 0.00, 0.00, 0.00, 0.00, 0.00, 0.00, 0
360441, -30086.52, -30914.50, 0.00, 0.00, 0.00, 0.00, 0.00, 0.00, 0
360442, -30072.91, -31050.08, 0.00, 0.00, 0.00, 0.00, 0.00, 0.00, 0
360443, -30183.15, -31508.49, 0.00, 0.00, 0.00, 0.00, 0.00, 0.00, 0
360444, -30219.09, -31462.43, 0.00, 0.00, 0.00, 0.00, 0.00, 0.00, 0
360445, -30115.38, -31003.93, 0.00, 0.00, 0.00, 0.00, 0.00, 0.00, 0
360446, -30070.49, -31007.99, 0.00, 0.00, 0.00, 0.00, 0.00, 0.00, 0
360447, -30160.08, -31437.46, 0.00, 0.00, 0.00, 0.00, 0.00, 0.00, 0
360448, -30216.18, -31490.03, 0.00, 0.00, 0.00, 0.00, 0.00, 0.00, 0
360449, -30126.22, -31043.24, 0.00, 0.00, 0.00, 0.00, 0.00, 0.00, 0
360450, -30059.36, -30952.16, 0.00, 0.00, 0.00, 0.00, 0.00, 0.00, 0
360451, -30134.24, -31354.62, 0.00, 0.00, 0.00, 0.00, 0.00, 0.00, 0
360452, -30215.24, -31520.23, 0.00, 0.00, 0.00, 0.00, 0.00, 0.00, 0
360453, -30143.29, -31128.58, 0.00, 0.00, 0.00, 0.00, 0.00, 0.00, 0
360454, -30055.88, -30918.50, 0.00, 0.00, 0.00, 0.00, 0.00, 0.00, 0
360455, -30110.17, -31256.63, 0.00, 0.00, 0.00, 0.00, 0.00, 0.00, 0
360456, -30205.43, -31525.14, 0.00, 0.00, 0.00, 0.00, 0.00, 0.00, 0
360457, -30161.64, -31196.80, 0.00, 0.00, 0.00, 0.00, 0.00, 0.00, 0
360458, -30065.22, -30901.26, 0.00, 0.00, 0.00, 0.00, 0.00, 0.00, 0
360459, -30101.12, -31174.13, 0.00, 0.00, 0.00, 0.00, 0.00, 0.00, 0
360460, -30206.19, -31514.82, 0.00, 0.00, 0.00, 0.00, 0.00, 0.00, 0
360461, -30185.43, -31279.21, 0.00, 0.00, 0.00, 0.00, 0.00, 0.00, 0
360462, -30078.59, -30920.80, 0.00, 0.00, 0.00, 0.00, 0.00, 0.00, 0
360463, -30081.67, -31087.86, 0.00, 0.00, 0.00, 0.00, 0.00, 0.00, 0
360464, -30184.96, -31473.65, 0.00, 0.00, 0.00, 0.00, 0.00, 0.00, 0
360465, -30203.96, -31378.18, 0.00, 0.00, 0.00, 0.00, 0.00, 0.00, 0
360466, -30102.23, -30981.33, 0.00, 0.00, 0.00, 0.00, 0.00, 0.00, 0
360467, -30077.33, -31041.99, 0.00, 0.00, 0.00, 0.00, 0.00, 0.00, 0
360468, -30173.33, -31444.72, 0.00, 0.00, 0.00, 0.00, 0.00, 0.00, 0
360469, -30210.75, -31416.43, 0.00, 0.00, 0.00, 0.00, 0.00, 0.00, 0
360470, -30110.28, -30990.18, 0.00, 0.00, 0.00, 0.00, 0.00, 0.00, 0
360471, -30069.13, -30977.28, 0.00, 0.00, 0.00, 0.00, 0.00, 0.00, 0
360472, -30159.14, -31389.27, 0.00, 0.00, 0.00, 0.00, 0.00, 0.00, 0
360473, -30217.26, -31468.10, 0.00, 0.00, 0.00, 0.00, 0.00, 0.00, 0
360474, -30133.91, -31059.60, 0.00, 0.00, 0.00, 0.00, 0.00, 0.00, 0
360475, -30064.73, -30936.33, 0.00, 0.00, 0.00, 0.00, 0.00, 0.00, 0
360476, -30130.46, -31310.39, 0.00, 0.00, 0.00, 0.00, 0.00, 0.00, 0
360477, -30213.19, -31497.99, 0.00, 0.00, 0.00, 0.00, 0.00, 0.00, 0
360478, -30159.74, -31135.58, 0.00, 0.00, 0.00, 0.00, 0.00, 0.00, 0
360479, -30073.27, -30905.26, 0.00, 0.00, 0.00, 0.00, 0.00, 0.00, 0
360480, -30117.16, -31218.81, 0.00, 0.00, 0.00, 0.00, 0.00, 0.00, 0
360481, -30210.33, -31505.83, 0.00, 0.00, 0.00, 0.00, 0.00, 0.00, 0
360482, -30172.02, -31215.26, 0.00, 0.00, 0.00, 0.00, 0.00, 0.00, 0
360483, -30072.42, -30899.95, 0.00, 0.00, 0.00, 0.00, 0.00, 0.00, 0
360484, -30097.99, -31131.20, 0.00, 0.00, 0.00, 0.00, 0.00, 0.00, 0
360485, -30203.26, -31478.59, 0.00, 0.00, 0.00, 0.00, 0.00, 0.00, 0
360486, -30189.25, -31298.74, 0.00, 0.00, 0.00, 0.00, 0.00, 0.00, 0
360487, -30081.31, -30947.82, 0.00, 0.00, 0.00, 0.00, 0.00, 0.00, 0
360488, -30084.58, -31087.03, 0.00, 0.00, 0.00, 0.00, 0.00, 0.00, 0
360489, -30186.30, -31451.59, 0.00, 0.00, 0.00, 0.00, 0.00, 0.00, 0
360490, -30198.30, -31362.65, 0.00, 0.00, 0.00, 0.00, 0.00, 0.00, 0
360491, -30092.96, -30973.39, 0.00, 0.00, 0.00, 0.00, 0.00, 0.00, 0
360492, -30071.41, -31030.50, 0.00, 0.00, 0.00, 0.00, 0.00, 0.00, 0
360493, -30167.08, -31397.94, 0.00, 0.00, 0.00, 0.00, 0.00, 0.00, 0
360494, -30207.51, -31399.55, 0.00, 0.00, 0.00, 0.00, 0.00, 0.00, 0
360495, -30117.21, -31052.88, 0.00, 0.00, 0.00, 0.00, 0.00, 0.00, 0
360496, -30066.04, -31008.35, 0.00, 0.00, 0.00, 0.00, 0.00, 0.00, 0
360497, -30142.00, -31360.08, 0.00, 0.00, 0.00, 0.00, 0.00, 0.00, 0
360498, -30203.04, -31450.60, 0.00, 0.00, 0.00, 0.00, 0.00, 0.00, 0
360499, -30125.48, -31088.95, 0.00, 0.00, 0.00, 0.00, 0.00, 0.00, 0
360500, -30058.40, -30939.89, 0.00, 0.00, 0.00, 0.00, 0.00, 0.00, 0
360501, -30127.27, -31264.28, 0.00, 0.00, 0.00, 0.00, 0.00, 0.00, 0
360502, -30208.70, -31464.13, 0.00, 0.00, 0.00, 0.00, 0.00, 0.00, 0
360503, -30144.50, -31166.89, 0.00, 0.00, 0.00, 0.00, 0.00, 0.00, 0
360504, -30058.76, -30955.73, 0.00, 0.00, 0.00, 0.00, 0.00, 0.00, 0
360505, -30110.28, -31234.91, 0.00, 0.00, 0.00, 0.00, 0.00, 0.00, 0
360506, -30205.10, -31494.59, 0.00, 0.00, 0.00, 0.00, 0.00, 0.00, 0
360507, -30167.97, -31230.88, 0.00, 0.00, 0.00, 0.00, 0.00, 0.00, 0
360508, -30070.61, -30946.06, 0.00, 0.00, 0.00, 0.00, 0.00, 0.00, 0
360509, -30096.22, -31151.25, 0.00, 0.00, 0.00, 0.00, 0.00, 0.00, 0
360510, -30196.47, -31476.66, 0.00, 0.00, 0.00, 0.00, 0.00, 0.00, 0
360511, -30182.43, -31305.47, 0.00, 0.00, 0.00, 0.00, 0.00, 0.00, 0
360512, -30077.96, -30955.91, 0.00, 0.00, 0.00, 0.00, 0.00, 0.00, 0
360513, -30081.80, -31083.99, 0.00, 0.00, 0.00, 0.00, 0.00, 0.00, 0
360514, -30185.85, -31453.73, 0.00, 0.00, 0.00, 0.00, 0.00, 0.00, 0
360515, -30199.69, -31376.80, 0.00, 0.00, 0.00, 0.00, 0.00, 0.00, 0
360516, -30096.60, -30990.38, 0.00, 0.00, 0.00, 0.00, 0.00, 0.00, 0
360517, -30073.27, -31013.49, 0.00, 0.00, 0.00, 0.00, 0.00, 0.00, 0
360518, -30169.56, -31396.13, 0.00, 0.00, 0.00, 0.00, 0.00, 0.00, 0
360519, -30208.20, -31417.59, 0.00, 0.00, 0.00, 0.00, 0.00, 0.00, 0
360520, -30111.73, -31027.46, 0.00, 0.00, 0.00, 0.00, 0.00, 0.00, 0
360521, -30060.28, -30963.42, 0.00, 0.00, 0.00, 0.00, 0.00, 0.00, 0
360522, -30146.56, -31331.69, 0.00, 0.00, 0.00, 0.00, 0.00, 0.00, 0
360523, -30212.58, -31460.55, 0.00, 0.00, 0.00, 0.00, 0.00, 0.00, 0
360524, -30131.76, -31101.63, 0.00, 0.00, 0.00, 0.00, 0.00, 0.00, 0
360525, -30059.16, -30935.15, 0.00, 0.00, 0.00, 0.00, 0.00, 0.00, 0
360526, -30125.10, -31254.96, 0.00, 0.00, 0.00, 0.00, 0.00, 0.00, 0
360527, -30211.60, -31467.88, 0.00, 0.00, 0.00, 0.00, 0.00, 0.00, 0
360528, -30144.86, -31143.29, 0.00, 0.00, 0.00, 0.00, 0.00, 0.00, 0
360529, -30054.69, -30900.39, 0.00, 0.00, 0.00, 0.00, 0.00, 0.00, 0
360530, -30106.79, -31199.39, 0.00, 0.00, 0.00, 0.00, 0.00, 0.00, 0
360531, -30209.14, -31499.35, 0.00, 0.00, 0.00, 0.00, 0.00, 0.00, 0
360532, -30172.11, -31248.99, 0.00, 0.00, 0.00, 0.00, 0.00, 0.00, 0
360533, -30068.73, -30939.66, 0.00, 0.00, 0.00, 0.00, 0.00, 0.00, 0
360534, -30088.04, -31143.73, 0.00, 0.00, 0.00, 0.00, 0.00, 0.00, 0
360535, -30190.75, -31485.72, 0.00, 0.00, 0.00, 0.00, 0.00, 0.00, 0
360536, -30180.53, -31327.78, 0.00, 0.00, 0.00, 0.00, 0.00, 0.00, 0
360537, -30073.11, -30954.10, 0.00, 0.00, 0.00, 0.00, 0.00, 0.00, 0
360538, -30071.86, -31053.48, 0.00, 0.00, 0.00, 0.00, 0.00, 0.00, 0
360539, -30175.12, -31433.39, 0.00, 0.00, 0.00, 0.00, 0.00, 0.00, 0
360540, -30196.63, -31391.53, 0.00, 0.00, 0.00, 0.00, 0.00, 0.00, 0
360541, -30096.67, -31019.44, 0.00, 0.00, 0.00, 0.00, 0.00, 0.00, 0
360542, -30067.99, -31010.29, 0.00, 0.00, 0.00, 0.00, 0.00, 0.00, 0
360543, -30157.75, -31356.28, 0.00, 0.00, 0.00, 0.00, 0.00, 0.00, 0
360544, -30198.59, -31407.73, 0.00, 0.00, 0.00, 0.00, 0.00, 0.00, 0
360545, -30107.75, -31062.11, 0.00, 0.00, 0.00, 0.00, 0.00, 0.00, 0
360546, -30056.41, -30983.36, 0.00, 0.00, 0.00, 0.00, 0.00, 0.00, 0
360547, -30133.93, -31320.54, 0.00, 0.00, 0.00, 0.00, 0.00, 0.00, 0
360548, -30202.01, -31451.72, 0.00, 0.00, 0.00, 0.00, 0.00, 0.00, 0
360549, -30127.76, -31125.23, 0.00, 0.00, 0.00, 0.00, 0.00, 0.00, 0
360550, -30060.26, -30961.90, 0.00, 0.00, 0.00, 0.00, 0.00, 0.00, 0
360551, -30124.50, -31248.34, 0.00, 0.00, 0.00, 0.00, 0.00, 0.00, 0
360552, -30207.87, -31457.89, 0.00, 0.00, 0.00, 0.00, 0.00, 0.00, 0
360553, -30152.30, -31191.68, 0.00, 0.00, 0.00, 0.00, 0.00, 0.00, 0
360554, -30062.38, -30957.37, 0.00, 0.00, 0.00, 0.00, 0.00, 0.00, 0
360555, -30101.07, -31184.17, 0.00, 0.00, 0.00, 0.00, 0.00, 0.00, 0
360556, -30198.23, -31464.64, 0.00, 0.00, 0.00, 0.00, 0.00, 0.00, 0
360557, -30170.05, -31266.49, 0.00, 0.00, 0.00, 0.00, 0.00, 0.00, 0
360558, -30073.24, -30953.48, 0.00, 0.00, 0.00, 0.00, 0.00, 0.00, 0
360559, -30091.64, -31088.46, 0.00, 0.00, 0.00, 0.00, 0.00, 0.00, 0
360560, -30191.08, -31426.62, 0.00, 0.00, 0.00, 0.00, 0.00, 0.00, 0
360561, -30190.95, -31323.38, 0.00, 0.00, 0.00, 0.00, 0.00, 0.00, 0
360562, -30091.59, -30984.72, 0.00, 0.00, 0.00, 0.00, 0.00, 0.00, 0
360563, -30089.69, -31055.22, 0.00, 0.00, 0.00, 0.00, 0.00, 0.00, 0
360564, -30184.24, -31385.51, 0.00, 0.00, 0.00, 0.00, 0.00, 0.00, 0
360565, -30204.52, -31356.81, 0.00, 0.00, 0.00, 0.00, 0.00, 0.00, 0
360566, -30104.74, -31024.27, 0.00, 0.00, 0.00, 0.00, 0.00, 0.00, 0
360567, -30073.85, -31014.70, 0.00, 0.00, 0.00, 0.00, 0.00, 0.00, 0
360568, -30166.49, -31347.83, 0.00, 0.00, 0.00, 0.00, 0.00, 0.00, 0
360569, -30209.79, -31412.00, 0.00, 0.00, 0.00, 0.00, 0.00, 0.00, 0
360570, -30120.70, -31079.94, 0.00, 0.00, 0.00, 0.00, 0.00, 0.00, 0
360571, -30072.39, -30987.14, 0.00, 0.00, 0.00, 0.00, 0.00, 0.00, 0
360572, -30149.13, -31293.09, 0.00, 0.00, 0.00, 0.00, 0.00, 0.00, 0
360573, -30213.97, -31449.28, 0.00, 0.00, 0.00, 0.00, 0.00, 0.00, 0
360574, -30144.28, -31156.01, 0.00, 0.00, 0.00, 0.00, 0.00, 0.00, 0
360575, -30075.37, -30969.19, 0.00, 0.00, 0.00, 0.00, 0.00, 0.00, 0
360576, -30138.13, -31229.21, 0.00, 0.00, 0.00, 0.00, 0.00, 0.00, 0
360577, -30217.81, -31454.22, 0.00, 0.00, 0.00, 0.00, 0.00, 0.00, 0
360578, -30163.39, -31232.79, 0.00, 0.00, 0.00, 0.00, 0.00, 0.00, 0
360579, -30081.16, -30993.49, 0.00, 0.00, 0.00, 0.00, 0.00, 0.00, 0
360580, -30118.55, -31170.85, 0.00, 0.00, 0.00, 0.00, 0.00, 0.00, 0
360581, -30202.23, -31423.82, 0.00, 0.00, 0.00, 0.00, 0.00, 0.00, 0
360582, -30172.84, -31260.01, 0.00, 0.00, 0.00, 0.00, 0.00, 0.00, 0
360583, -30080.46, -30977.30, 0.00, 0.00, 0.00, 0.00, 0.00, 0.00, 0
360584, -30099.66, -31091.01, 0.00, 0.00, 0.00, 0.00, 0.00, 0.00, 0
360585, -30194.50, -31390.19, 0.00, 0.00, 0.00, 0.00, 0.00, 0.00, 0
360586, -30188.47, -31329.66, 0.00, 0.00, 0.00, 0.00, 0.00, 0.00, 0
360587, -30090.59, -31035.78, 0.00, 0.00, 0.00, 0.00, 0.00, 0.00, 0
360588, -30083.28, -31064.83, 0.00, 0.00, 0.00, 0.00, 0.00, 0.00, 0
360589, -30169.38, -31363.21, 0.00, 0.00, 0.00, 0.00, 0.00, 0.00, 0
360590, -30193.05, -31363.27, 0.00, 0.00, 0.00, 0.00, 0.00, 0.00, 0
360591, -30103.78, -31050.26, 0.00, 0.00, 0.00, 0.00, 0.00, 0.00, 0
360592, -30079.32, -31011.95, 0.00, 0.00, 0.00, 0.00, 0.00, 0.00, 0
360593, -30165.62, -31321.59, 0.00, 0.00, 0.00, 0.00, 0.00, 0.00, 0
360594, -30209.16, -31418.75, 0.00, 0.00, 0.00, 0.00, 0.00, 0.00, 0
360595, -30127.16, -31137.48, 0.00, 0.00, 0.00, 0.00, 0.00, 0.00, 0
360596, -30082.27, -31030.66, 0.00, 0.00, 0.00, 0.00, 0.00, 0.00, 0
360597, -30148.95, -31247.47, 0.00, 0.00, 0.00, 0.00, 0.00, 0.00, 0
360598, -30200.16, -31385.11, 0.00, 0.00, 0.00, 0.00, 0.00, 0.00, 0
360599, -30134.08, -31190.72, 0.00, 0.00, 0.00, 0.00, 0.00, 0.00, 0
360600, -30071.01, -31030.48, 0.00, 0.00, 0.00, 0.00, 0.00, 0.00, 0
360601, -30118.57, -31201.63, 0.00, 0.00, 0.00, 0.00, 0.00, 0.00, 0
360602, -30192.04, -31376.97, 0.00, 0.00, 0.00, 0.00, 0.00, 0.00, 0
360603, -30148.19, -31220.96, 0.00, 0.00, 0.00, 0.00, 0.00, 0.00, 0
360604, -30072.42, -31013.69, 0.00, 0.00, 0.00, 0.00, 0.00, 0.00, 0
360605, -30108.63, -31137.79, 0.00, 0.00, 0.00, 0.00, 0.00, 0.00, 0
360606, -30187.53, -31362.67, 0.00, 0.00, 0.00, 0.00, 0.00, 0.00, 0
360607, -30162.61, -31262.58, 0.00, 0.00, 0.00, 0.00, 0.00, 0.00, 0
360608, -30079.35, -31020.53, 0.00, 0.00, 0.00, 0.00, 0.00, 0.00, 0
360609, -30099.33, -31089.06, 0.00, 0.00, 0.00, 0.00, 0.00, 0.00, 0
360610, -30185.70, -31342.38, 0.00, 0.00, 0.00, 0.00, 0.00, 0.00, 0
360611, -30176.17, -31313.16, 0.00, 0.00, 0.00, 0.00, 0.00, 0.00, 0
360612, -30087.55, -31077.51, 0.00, 0.00, 0.00, 0.00, 0.00, 0.00, 0
360613, -30089.16, -31086.25, 0.00, 0.00, 0.00, 0.00, 0.00, 0.00, 0
360614, -30173.04, -31317.95, 0.00, 0.00, 0.00, 0.00, 0.00, 0.00, 0
360615, -30187.97, -31343.31, 0.00, 0.00, 0.00, 0.00, 0.00, 0.00, 0
360616, -30103.46, -31113.74, 0.00, 0.00, 0.00, 0.00, 0.00, 0.00, 0
360617, -30083.55, -31050.80, 0.00, 0.00, 0.00, 0.00, 0.00, 0.00, 0
360618, -30158.63, -31255.05, 0.00, 0.00, 0.00, 0.00, 0.00, 0.00, 0
360619, -30192.87, -31330.55, 0.00, 0.00, 0.00, 0.00, 0.00, 0.00, 0
360620, -30119.67, -31137.83, 0.00, 0.00, 0.00, 0.00, 0.00, 0.00, 0
360621, -30078.52, -31043.44, 0.00, 0.00, 0.00, 0.00, 0.00, 0.00, 0
360622, -30151.94, -31223.02, 0.00, 0.00, 0.00, 0.00, 0.00, 0.00, 0
360623, -30207.60, -31345.44, 0.00, 0.00, 0.00, 0.00, 0.00, 0.00, 0
360624, -30136.34, -31189.94, 0.00, 0.00, 0.00, 0.00, 0.00, 0.00, 0
360625, -30076.86, -31058.66, 0.00, 0.00, 0.00, 0.00, 0.00, 0.00, 0
360626, -30123.15, -31177.20, 0.00, 0.00, 0.00, 0.00, 0.00, 0.00, 0
360627, -30188.62, -31322.41, 0.00, 0.00, 0.00, 0.00, 0.00, 0.00, 0
360628, -30142.80, -31212.24, 0.00, 0.00, 0.00, 0.00, 0.00, 0.00, 0
360629, -30070.52, -31053.97, 0.00, 0.00, 0.00, 0.00, 0.00, 0.00, 0
360630, -30109.52, -31154.58, 0.00, 0.00, 0.00, 0.00, 0.00, 0.00, 0
360631, -30186.03, -31334.35, 0.00, 0.00, 0.00, 0.00, 0.00, 0.00, 0
360632, -30156.06, -31271.50, 0.00, 0.00, 0.00, 0.00, 0.00, 0.00, 0
360633, -30076.48, -31079.65, 0.00, 0.00, 0.00, 0.00, 0.00, 0.00, 0
360634, -30098.54, -31112.71, 0.00, 0.00, 0.00, 0.00, 0.00, 0.00, 0
360635, -30182.70, -31322.91, 0.00, 0.00, 0.00, 0.00, 0.00, 0.00, 0
360636, -30176.02, -31314.57, 0.00, 0.00, 0.00, 0.00, 0.00, 0.00, 0
360637, -30088.33, -31114.25, 0.00, 0.00, 0.00, 0.00, 0.00, 0.00, 0
360638, -30086.43, -31088.53, 0.00, 0.00, 0.00, 0.00, 0.00, 0.00, 0
360639, -30171.79, -31264.21, 0.00, 0.00, 0.00, 0.00, 0.00, 0.00, 0
360640, -30186.39, -31309.81, 0.00, 0.00, 0.00, 0.00, 0.00, 0.00, 0
360641, -30100.65, -31139.02, 0.00, 0.00, 0.00, 0.00, 0.00, 0.00, 0
360642, -30080.73, -31073.51, 0.00, 0.00, 0.00, 0.00, 0.00, 0.00, 0
360643, -30156.08, -31216.58, 0.00, 0.00, 0.00, 0.00, 0.00, 0.00, 0
360644, -30192.22, -31287.90, 0.00, 0.00, 0.00, 0.00, 0.00, 0.00, 0
360645, -30119.40, -31166.44, 0.00, 0.00, 0.00, 0.00, 0.00, 0.00, 0
360646, -30083.86, -31077.35, 0.00, 0.00, 0.00, 0.00, 0.00, 0.00, 0
360647, -30147.90, -31184.71, 0.00, 0.00, 0.00, 0.00, 0.00, 0.00, 0
360648, -30194.43, -31301.87, 0.00, 0.00, 0.00, 0.00, 0.00, 0.00, 0
360649, -30128.85, -31206.30, 0.00, 0.00, 0.00, 0.00, 0.00, 0.00, 0
360650, -30076.95, -31091.81, 0.00, 0.00, 0.00, 0.00, 0.00, 0.00, 0
360651, -30124.32, -31171.81, 0.00, 0.00, 0.00, 0.00, 0.00, 0.00, 0
360652, -30183.37, -31295.82, 0.00, 0.00, 0.00, 0.00, 0.00, 0.00, 0
360653, -30132.54, -31213.70, 0.00, 0.00, 0.00, 0.00, 0.00, 0.00, 0
360654, -30067.10, -31069.06, 0.00, 0.00, 0.00, 0.00, 0.00, 0.00, 0
360655, -30111.44, -31120.94, 0.00, 0.00, 0.00, 0.00, 0.00, 0.00, 0
360656, -30189.03, -31275.95, 0.00, 0.00, 0.00, 0.00, 0.00, 0.00, 0
360657, -30158.63, -31250.08, 0.00, 0.00, 0.00, 0.00, 0.00, 0.00, 0
360658, -30077.74, -31091.25, 0.00, 0.00, 0.00, 0.00, 0.00, 0.00, 0
360659, -30097.79, -31116.96, 0.00, 0.00, 0.00, 0.00, 0.00, 0.00, 0
360660, -30180.49, -31294.70, 0.00, 0.00, 0.00, 0.00, 0.00, 0.00, 0
360661, -30171.88, -31279.79, 0.00, 0.00, 0.00, 0.00, 0.00, 0.00, 0
360662, -30083.17, -31103.99, 0.00, 0.00, 0.00, 0.00, 0.00, 0.00, 0
360663, -30076.78, -31094.67, 0.00, 0.00, 0.00, 0.00, 0.00, 0.00, 0
360664, -30159.95, -31272.97, 0.00, 0.00, 0.00, 0.00, 0.00, 0.00, 0
360665, -30183.33, -31304.58, 0.00, 0.00, 0.00, 0.00, 0.00, 0.00, 0
360666, -30103.24, -31129.03, 0.00, 0.00, 0.00, 0.00, 0.00, 0.00, 0
360667, -30082.14, -31074.49, 0.00, 0.00, 0.00, 0.00, 0.00, 0.00, 0
360668, -30157.51, -31238.82, 0.00, 0.00, 0.00, 0.00, 0.00, 0.00, 0
360669, -30196.58, -31328.52, 0.00, 0.00, 0.00, 0.00, 0.00, 0.00, 0
360670, -30119.80, -31169.08, 0.00, 0.00, 0.00, 0.00, 0.00, 0.00, 0
360671, -30078.54, -31053.46, 0.00, 0.00, 0.00, 0.00, 0.00, 0.00, 0
360672, -30138.67, -31176.93, 0.00, 0.00, 0.00, 0.00, 0.00, 0.00, 0
360673, -30194.39, -31309.47, 0.00, 0.00, 0.00, 0.00, 0.00, 0.00, 0
360674, -30131.96, -31194.59, 0.00, 0.00, 0.00, 0.00, 0.00, 0.00, 0
360675, -30068.30, -31056.99, 0.00, 0.00, 0.00, 0.00, 0.00, 0.00, 0
360676, -30114.71, -31152.83, 0.00, 0.00, 0.00, 0.00, 0.00, 0.00, 0
360677, -30185.78, -31283.37, 0.00, 0.00, 0.00, 0.00, 0.00, 0.00, 0
360678, -30148.57, -31214.37, 0.00, 0.00, 0.00, 0.00, 0.00, 0.00, 0
360679, -30080.89, -31068.72, 0.00, 0.00, 0.00, 0.00, 0.00, 0.00, 0
360680, -30119.69, -31148.25, 0.00, 0.00, 0.00, 0.00, 0.00, 0.00, 0
360681, -30199.64, -31333.81, 0.00, 0.00, 0.00, 0.00, 0.00, 0.00, 0
360682, -30172.91, -31275.03, 0.00, 0.00, 0.00, 0.00, 0.00, 0.00, 0
360683, -30087.01, -31089.49, 0.00, 0.00, 0.00, 0.00, 0.00, 0.00, 0
360684, -30099.13, -31121.49, 0.00, 0.00, 0.00, 0.00, 0.00, 0.00, 0
360685, -30185.52, -31338.44, 0.00, 0.00, 0.00, 0.00, 0.00, 0.00, 0
360686, -30184.33, -31321.21, 0.00, 0.00, 0.00, 0.00, 0.00, 0.00, 0
360687, -30091.68, -31064.95, 0.00, 0.00, 0.00, 0.00, 0.00, 0.00, 0
360688, -30076.46, -31045.05, 0.00, 0.00, 0.00, 0.00, 0.00, 0.00, 0
360689, -30160.08, -31312.74, 0.00, 0.00, 0.00, 0.00, 0.00, 0.00, 0
360690, -30195.80, -31384.44, 0.00, 0.00, 0.00, 0.00, 0.00, 0.00, 0
360691, -30112.54, -31106.50, 0.00, 0.00, 0.00, 0.00, 0.00, 0.00, 0
360692, -30072.28, -31002.47, 0.00, 0.00, 0.00, 0.00, 0.00, 0.00, 0
360693, -30147.41, -31257.66, 0.00, 0.00, 0.00, 0.00, 0.00, 0.00, 0
360694, -30207.11, -31395.97, 0.00, 0.00, 0.00, 0.00, 0.00, 0.00, 0
360695, -30140.39, -31148.59, 0.00, 0.00, 0.00, 0.00, 0.00, 0.00, 0
360696, -30073.15, -30980.03, 0.00, 0.00, 0.00, 0.00, 0.00, 0.00, 0
360697, -30129.79, -31197.20, 0.00, 0.00, 0.00, 0.00, 0.00, 0.00, 0
360698, -30208.85, -31413.23, 0.00, 0.00, 0.00, 0.00, 0.00, 0.00, 0
360699, -30156.35, -31209.85, 0.00, 0.00, 0.00, 0.00, 0.00, 0.00, 0
360700, -30068.04, -30986.85, 0.00, 0.00, 0.00, 0.00, 0.00, 0.00, 0
360701, -30101.36, -31174.00, 0.00, 0.00, 0.00, 0.00, 0.00, 0.00, 0
360702, -30188.69, -31432.38, 0.00, 0.00, 0.00, 0.00, 0.00, 0.00, 0
360703, -30158.04, -31276.39, 0.00, 0.00, 0.00, 0.00, 0.00, 0.00, 0
360704, -30065.38, -30985.71, 0.00, 0.00, 0.00, 0.00, 0.00, 0.00, 0
360705, -30084.51, -31100.26, 0.00, 0.00, 0.00, 0.00, 0.00, 0.00, 0
360706, -30185.13, -31403.24, 0.00, 0.00, 0.00, 0.00, 0.00, 0.00, 0
360707, -30181.29, -31324.70, 0.00, 0.00, 0.00, 0.00, 0.00, 0.00, 0
360708, -30081.40, -31011.03, 0.00, 0.00, 0.00, 0.00, 0.00, 0.00, 0
360709, -30081.76, -31058.46, 0.00, 0.00, 0.00, 0.00, 0.00, 0.00, 0
360710, -30178.88, -31384.89, 0.00, 0.00, 0.00, 0.00, 0.00, 0.00, 0
360711, -30201.07, -31383.35, 0.00, 0.00, 0.00, 0.00, 0.00, 0.00, 0
360712, -30104.20, -31045.10, 0.00, 0.00, 0.00, 0.00, 0.00, 0.00, 0
360713, -30072.86, -31007.03, 0.00, 0.00, 0.00, 0.00, 0.00, 0.00, 0
360714, -30155.45, -31329.46, 0.00, 0.00, 0.00, 0.00, 0.00, 0.00, 0
360715, -30204.89, -31409.65, 0.00, 0.00, 0.00, 0.00, 0.00, 0.00, 0
360716, -30122.48, -31090.52, 0.00, 0.00, 0.00, 0.00, 0.00, 0.00, 0
360717, -30068.95, -30979.14, 0.00, 0.00, 0.00, 0.00, 0.00, 0.00, 0
360718, -30140.03, -31271.03, 0.00, 0.00, 0.00, 0.00, 0.00, 0.00, 0
360719, -30214.21, -31425.90, 0.00, 0.00, 0.00, 0.00, 0.00, 0.00, 0
360720, -30146.60, -31137.25, 0.00, 0.00, 0.00, 0.00, 0.00, 0.00, 0
360721, -30068.48, -30952.85, 0.00, 0.00, 0.00, 0.00, 0.00, 0.00, 0
360722, -30122.46, -31211.15, 0.00, 0.00, 0.00, 0.00, 0.00, 0.00, 0
360723, -30215.15, -31467.95, 0.00, 0.00, 0.00, 0.00, 0.00, 0.00, 0
360724, -30173.96, -31231.04, 0.00, 0.00, 0.00, 0.00, 0.00, 0.00, 0
360725, -30076.42, -30946.23, 0.00, 0.00, 0.00, 0.00, 0.00, 0.00, 0
360726, -30104.87, -31153.23, 0.00, 0.00, 0.00, 0.00, 0.00, 0.00, 0
360727, -30196.40, -31469.36, 0.00, 0.00, 0.00, 0.00, 0.00, 0.00, 0
360728, -30175.73, -31291.12, 0.00, 0.00, 0.00, 0.00, 0.00, 0.00, 0
360729, -30072.51, -30957.66, 0.00, 0.00, 0.00, 0.00, 0.00, 0.00, 0
360730, -30083.01, -31103.55, 0.00, 0.00, 0.00, 0.00, 0.00, 0.00, 0
360731, -30189.52, -31472.64, 0.00, 0.00, 0.00, 0.00, 0.00, 0.00, 0
360732, -30198.53, -31376.95, 0.00, 0.00, 0.00, 0.00, 0.00, 0.00, 0
360733, -30089.80, -30997.38, 0.00, 0.00, 0.00, 0.00, 0.00, 0.00, 0
360734, -30070.74, -31037.79, 0.00, 0.00, 0.00, 0.00, 0.00, 0.00, 0
360735, -30170.92, -31409.54, 0.00, 0.00, 0.00, 0.00, 0.00, 0.00, 0
360736, -30207.62, -31413.21, 0.00, 0.00, 0.00, 0.00, 0.00, 0.00, 0
360737, -30111.24, -31029.43, 0.00, 0.00, 0.00, 0.00, 0.00, 0.00, 0
360738, -30067.74, -30984.05, 0.00, 0.00, 0.00, 0.00, 0.00, 0.00, 0
360739, -30151.74, -31349.30, 0.00, 0.00, 0.00, 0.00, 0.00, 0.00, 0
360740, -30211.20, -31449.13, 0.00, 0.00, 0.00, 0.00, 0.00, 0.00, 0
360741, -30125.97, -31083.43, 0.00, 0.00, 0.00, 0.00, 0.00, 0.00, 0
360742, -30056.28, -30935.57, 0.00, 0.00, 0.00, 0.00, 0.00, 0.00, 0
360743, -30125.88, -31265.55, 0.00, 0.00, 0.00, 0.00, 0.00, 0.00, 0
360744, -30208.96, -31473.47, 0.00, 0.00, 0.00, 0.00, 0.00, 0.00, 0
360745, -30139.40, -31143.73, 0.00, 0.00, 0.00, 0.00, 0.00, 0.00, 0
360746, -30050.38, -30906.11, 0.00, 0.00, 0.00, 0.00, 0.00, 0.00, 0
360747, -30104.09, -31187.37, 0.00, 0.00, 0.00, 0.00, 0.00, 0.00, 0
360748, -30208.85, -31470.65, 0.00, 0.00, 0.00, 0.00, 0.00, 0.00, 0
360749, -30173.56, -31237.37, 0.00, 0.00, 0.00, 0.00, 0.00, 0.00, 0
360750, -30073.42, -30945.77, 0.00, 0.00, 0.00, 0.00, 0.00, 0.00, 0
360751, -30102.95, -31149.48, 0.00, 0.00, 0.00, 0.00, 0.00, 0.00, 0
360752, -30201.68, -31466.38, 0.00, 0.00, 0.00, 0.00, 0.00, 0.00, 0
360753, -30185.18, -31289.89, 0.00, 0.00, 0.00, 0.00, 0.00, 0.00, 0
360754, -30078.79, -30955.71, 0.00, 0.00, 0.00, 0.00, 0.00, 0.00, 0
360755, -30083.68, -31083.16, 0.00, 0.00, 0.00, 0.00, 0.00, 0.00, 0
360756, -30187.08, -31447.72, 0.00, 0.00, 0.00, 0.00, 0.00, 0.00, 0
360757, -30202.21, -31370.43, 0.00, 0.00, 0.00, 0.00, 0.00, 0.00, 0
360758, -30100.74, -30996.21, 0.00, 0.00, 0.00, 0.00, 0.00, 0.00, 0
360759, -30081.09, -31037.90, 0.00, 0.00, 0.00, 0.00, 0.00, 0.00, 0
360760, -30172.91, -31406.59, 0.00, 0.00, 0.00, 0.00, 0.00, 0.00, 0
360761, -30207.93, -31418.53, 0.00, 0.00, 0.00, 0.00, 0.00, 0.00, 0
360762, -30108.94, -31037.77, 0.00, 0.00, 0.00, 0.00, 0.00, 0.00, 0
360763, -30059.45, -30976.66, 0.00, 0.00, 0.00, 0.00, 0.00, 0.00, 0
360764, -30145.04, -31340.54, 0.00, 0.00, 0.00, 0.00, 0.00, 0.00, 0
360765, -30208.87, -31462.63, 0.00, 0.00, 0.00, 0.00, 0.00, 0.00, 0
360766, -30129.61, -31116.29, 0.00, 0.00, 0.00, 0.00, 0.00, 0.00, 0
360767, -30063.68, -30959.65, 0.00, 0.00, 0.00, 0.00, 0.00, 0.00, 0
360768, -30132.32, -31257.42, 0.00, 0.00, 0.00, 0.00, 0.00, 0.00, 0
360769, -30208.85, -31459.34, 0.00, 0.00, 0.00, 0.00, 0.00, 0.00, 0
360770, -30149.73, -31177.53, 0.00, 0.00, 0.00, 0.00, 0.00, 0.00, 0
360771, -30064.03, -30954.77, 0.00, 0.00, 0.00, 0.00, 0.00, 0.00, 0
360772, -30111.40, -31196.91, 0.00, 0.00, 0.00, 0.00, 0.00, 0.00, 0
360773, -30203.60, -31466.43, 0.00, 0.00, 0.00, 0.00, 0.00, 0.00, 0
360774, -30159.56, -31239.98, 0.00, 0.00, 0.00, 0.00, 0.00, 0.00, 0
360775, -30066.98, -30948.07, 0.00, 0.00, 0.00, 0.00, 0.00, 0.00, 0
360776, -30100.87, -31137.41, 0.00, 0.00, 0.00, 0.00, 0.00, 0.00, 0
360777, -30204.40, -31471.21, 0.00, 0.00, 0.00, 0.00, 0.00, 0.00, 0
360778, -30192.71, -31324.78, 0.00, 0.00, 0.00, 0.00, 0.00, 0.00, 0
360779, -30084.71, -30971.18, 0.00, 0.00, 0.00, 0.00, 0.00, 0.00, 0
360780, -30083.79, -31065.84, 0.00, 0.00, 0.00, 0.00, 0.00, 0.00, 0
360781, -30187.57, -31432.61, 0.00, 0.00, 0.00, 0.00, 0.00, 0.00, 0
360782, -30206.32, -31384.75, 0.00, 0.00, 0.00, 0.00, 0.00, 0.00, 0
360783, -30106.35, -31020.58, 0.00, 0.00, 0.00, 0.00, 0.00, 0.00, 0
360784, -30082.92, -31036.27, 0.00, 0.00, 0.00, 0.00, 0.00, 0.00, 0
360785, -30171.30, -31387.41, 0.00, 0.00, 0.00, 0.00, 0.00, 0.00, 0
360786, -30217.12, -31433.82, 0.00, 0.00, 0.00, 0.00, 0.00, 0.00, 0
360787, -30123.45, -31062.08, 0.00, 0.00, 0.00, 0.00, 0.00, 0.00, 0
360788, -30072.48, -30979.00, 0.00, 0.00, 0.00, 0.00, 0.00, 0.00, 0
360789, -30153.35, -31320.07, 0.00, 0.00, 0.00, 0.00, 0.00, 0.00, 0
360790, -30213.66, -31457.84, 0.00, 0.00, 0.00, 0.00, 0.00, 0.00, 0
360791, -30132.74, -31125.47, 0.00, 0.00, 0.00, 0.00, 0.00, 0.00, 0
360792, -30061.46, -30961.12, 0.00, 0.00, 0.00, 0.00, 0.00, 0.00, 0
360793, -30126.73, -31251.74, 0.00, 0.00, 0.00, 0.00, 0.00, 0.00, 0
360794, -30211.44, -31455.43, 0.00, 0.00, 0.00, 0.00, 0.00, 0.00, 0
360795, -30156.77, -31167.79, 0.00, 0.00, 0.00, 0.00, 0.00, 0.00, 0
360796, -30069.22, -30933.05, 0.00, 0.00, 0.00, 0.00, 0.00, 0.00, 0
360797, -30118.79, -31192.44, 0.00, 0.00, 0.00, 0.00, 0.00, 0.00, 0
360798, -30220.36, -31483.82, 0.00, 0.00, 0.00, 0.00, 0.00, 0.00, 0
360799, -30181.92, -31257.88, 0.00, 0.00, 0.00, 0.00, 0.00, 0.00, 0
360800, -30074.74, -30936.54, 0.00, 0.00, 0.00, 0.00, 0.00, 0.00, 0
360801, -30093.40, -31112.33, 0.00, 0.00, 0.00, 0.00, 0.00, 0.00, 0
360802, -30197.74, -31454.58, 0.00, 0.00, 0.00, 0.00, 0.00, 0.00, 0
360803, -30195.11, -31322.57, 0.00, 0.00, 0.00, 0.00, 0.00, 0.00, 0
360804, -30090.97, -30968.43, 0.00, 0.00, 0.00, 0.00, 0.00, 0.00, 0
360805, -30083.75, -31052.65, 0.00, 0.00, 0.00, 0.00, 0.00, 0.00, 0
360806, -30180.91, -31411.38, 0.00, 0.00, 0.00, 0.00, 0.00, 0.00, 0
360807, -30204.18, -31393.00, 0.00, 0.00, 0.00, 0.00, 0.00, 0.00, 0
360808, -30105.92, -31037.52, 0.00, 0.00, 0.00, 0.00, 0.00, 0.00, 0
360809, -30074.70, -31019.50, 0.00, 0.00, 0.00, 0.00, 0.00, 0.00, 0
360810, -30165.15, -31368.95, 0.00, 0.00, 0.00, 0.00, 0.00, 0.00, 0
360811, -30211.89, -31420.90, 0.00, 0.00, 0.00, 0.00, 0.00, 0.00, 0
360812, -30118.66, -31049.41, 0.00, 0.00, 0.00, 0.00, 0.00, 0.00, 0
360813, -30064.91, -30960.12, 0.00, 0.00, 0.00, 0.00, 0.00, 0.00, 0
360814, -30147.00, -31316.38, 0.00, 0.00, 0.00, 0.00, 0.00, 0.00, 0
360815, -30220.83, -31472.64, 0.00, 0.00, 0.00, 0.00, 0.00, 0.00, 0
360816, -30143.43, -31133.19, 0.00, 0.00, 0.00, 0.00, 0.00, 0.00, 0
360817, -30058.40, -30937.47, 0.00, 0.00, 0.00, 0.00, 0.00, 0.00, 0
360818, -30119.33, -31229.03, 0.00, 0.00, 0.00, 0.00, 0.00, 0.00, 0
360819, -30212.12, -31467.70, 0.00, 0.00, 0.00, 0.00, 0.00, 0.00, 0
360820, -30164.71, -31200.66, 0.00, 0.00, 0.00, 0.00, 0.00, 0.00, 0
360821, -30074.90, -30935.82, 0.00, 0.00, 0.00, 0.00, 0.00, 0.00, 0
360822, -30115.67, -31165.46, 0.00, 0.00, 0.00, 0.00, 0.00, 0.00, 0
360823, -30213.28, -31468.77, 0.00, 0.00, 0.00, 0.00, 0.00, 0.00, 0
360824, -30179.97, -31276.06, 0.00, 0.00, 0.00, 0.00, 0.00, 0.00, 0
360825, -30075.88, -30952.94, 0.00, 0.00, 0.00, 0.00, 0.00, 0.00, 0
360826, -30091.24, -31094.05, 0.00, 0.00, 0.00, 0.00, 0.00, 0.00, 0
360827, -30194.03, -31428.65, 0.00, 0.00, 0.00, 0.00, 0.00, 0.00, 0
360828, -30192.94, -31329.34, 0.00, 0.00, 0.00, 0.00, 0.00, 0.00, 0
360829, -30088.04, -30999.01, 0.00, 0.00, 0.00, 0.00, 0.00, 0.00, 0
360830, -30081.71, -31056.56, 0.00, 0.00, 0.00, 0.00, 0.00, 0.00, 0
360831, -30181.54, -31401.16, 0.00, 0.00, 0.00, 0.00, 0.00, 0.00, 0
360832, -30208.54, -31394.34, 0.00, 0.00, 0.00, 0.00, 0.00, 0.00, 0
360833, -30111.67, -31043.35, 0.00, 0.00, 0.00, 0.00, 0.00, 0.00, 0
360834, -30078.88, -31004.24, 0.00, 0.00, 0.00, 0.00, 0.00, 0.00, 0
360835, -30169.40, -31334.17, 0.00, 0.00, 0.00, 0.00, 0.00, 0.00, 0
360836, -30213.59, -31417.70, 0.00, 0.00, 0.00, 0.00, 0.00, 0.00, 0
360837, -30131.20, -31105.54, 0.00, 0.00, 0.00, 0.00, 0.00, 0.00, 0
360838, -30074.38, -30988.03, 0.00, 0.00, 0.00, 0.00, 0.00, 0.00, 0
360839, -30150.60, -31271.39, 0.00, 0.00, 0.00, 0.00, 0.00, 0.00, 0
360840, -30219.11, -31426.91, 0.00, 0.00, 0.00, 0.00, 0.00, 0.00, 0
360841, -30145.71, -31160.90, 0.00, 0.00, 0.00, 0.00, 0.00, 0.00, 0
360842, -30072.24, -30990.22, 0.00, 0.00, 0.00, 0.00, 0.00, 0.00, 0
360843, -30124.81, -31221.97, 0.00, 0.00, 0.00, 0.00, 0.00, 0.00, 0
360844, -30203.93, -31430.04, 0.00, 0.00, 0.00, 0.00, 0.00, 0.00, 0
360845, -30150.92, -31208.67, 0.00, 0.00, 0.00, 0.00, 0.00, 0.00, 0
360846, -30060.61, -30974.31, 0.00, 0.00, 0.00, 0.00, 0.00, 0.00, 0
360847, -30099.48, -31147.76, 0.00, 0.00, 0.00, 0.00, 0.00, 0.00, 0
360848, -30188.42, -31403.57, 0.00, 0.00, 0.00, 0.00, 0.00, 0.00, 0
360849, -30163.25, -31258.33, 0.00, 0.00, 0.00, 0.00, 0.00, 0.00, 0
360850, -30078.41, -30987.43, 0.00, 0.00, 0.00, 0.00, 0.00, 0.00, 0
360851, -30099.13, -31093.15, 0.00, 0.00, 0.00, 0.00, 0.00, 0.00, 0
360852, -30196.36, -31390.10, 0.00, 0.00, 0.00, 0.00, 0.00, 0.00, 0
360853, -30193.79, -31333.77, 0.00, 0.00, 0.00, 0.00, 0.00, 0.00, 0
360854, -30097.65, -31038.46, 0.00, 0.00, 0.00, 0.00, 0.00, 0.00, 0
360855, -30090.12, -31058.26, 0.00, 0.00, 0.00, 0.00, 0.00, 0.00, 0
360856, -30182.10, -31352.97, 0.00, 0.00, 0.00, 0.00, 0.00, 0.00, 0
360857, -30201.54, -31362.76, 0.00, 0.00, 0.00, 0.00, 0.00, 0.00, 0
360858, -30101.63, -31066.98, 0.00, 0.00, 0.00, 0.00, 0.00, 0.00, 0
360859, -30070.22, -31024.87, 0.00, 0.00, 0.00, 0.00, 0.00, 0.00, 0
360860, -30152.48, -31308.38, 0.00, 0.00, 0.00, 0.00, 0.00, 0.00, 0
360861, -30200.92, -31394.66, 0.00, 0.00, 0.00, 0.00, 0.00, 0.00, 0
360862, -30121.25, -31111.10, 0.00, 0.00, 0.00, 0.00, 0.00, 0.00, 0
360863, -30072.77, -30993.13, 0.00, 0.00, 0.00, 0.00, 0.00, 0.00, 0
360864, -30144.23, -31251.89, 0.00, 0.00, 0.00, 0.00, 0.00, 0.00, 0
360865, -30209.59, -31405.27, 0.00, 0.00, 0.00, 0.00, 0.00, 0.00, 0
360866, -30141.26, -31156.21, 0.00, 0.00, 0.00, 0.00, 0.00, 0.00, 0
360867, -30071.07, -30976.37, 0.00, 0.00, 0.00, 0.00, 0.00, 0.00, 0
360868, -30131.25, -31196.51, 0.00, 0.00, 0.00, 0.00, 0.00, 0.00, 0
360869, -30216.34, -31419.53, 0.00, 0.00, 0.00, 0.00, 0.00, 0.00, 0
360870, -30170.41, -31227.60, 0.00, 0.00, 0.00, 0.00, 0.00, 0.00, 0
360871, -30089.54, -30985.37, 0.00, 0.00, 0.00, 0.00, 0.00, 0.00, 0
360872, -30123.78, -31134.10, 0.00, 0.00, 0.00, 0.00, 0.00, 0.00, 0
360873, -30202.26, -31396.94, 0.00, 0.00, 0.00, 0.00, 0.00, 0.00, 0
360874, -30175.86, -31282.18, 0.00, 0.00, 0.00, 0.00, 0.00, 0.00, 0
360875, -30088.11, -31009.15, 0.00, 0.00, 0.00, 0.00, 0.00, 0.00, 0
360876, -30098.90, -31092.10, 0.00, 0.00, 0.00, 0.00, 0.00, 0.00, 0
360877, -30189.58, -31375.70, 0.00, 0.00, 0.00, 0.00, 0.00, 0.00, 0
360878, -30188.20, -31316.78, 0.00, 0.00, 0.00, 0.00, 0.00, 0.00, 0
360879, -30088.55, -31013.54, 0.00, 0.00, 0.00, 0.00, 0.00, 0.00, 0
360880, -30080.44, -31033.99, 0.00, 0.00, 0.00, 0.00, 0.00, 0.00, 0
360881, -30178.03, -31324.92, 0.00, 0.00, 0.00, 0.00, 0.00, 0.00, 0
360882, -30213.03, -31361.82, 0.00, 0.00, 0.00, 0.00, 0.00, 0.00, 0
360883, -30120.43, -31077.13, 0.00, 0.00, 0.00, 0.00, 0.00, 0.00, 0
360884, -30082.61, -31013.20, 0.00, 0.00, 0.00, 0.00, 0.00, 0.00, 0
360885, -30160.86, -31282.94, 0.00, 0.00, 0.00, 0.00, 0.00, 0.00, 0
360886, -30208.70, -31382.81, 0.00, 0.00, 0.00, 0.00, 0.00, 0.00, 0
360887, -30134.04, -31125.96, 0.00, 0.00, 0.00, 0.00, 0.00, 0.00, 0
360888, -30081.29, -31011.01, 0.00, 0.00, 0.00, 0.00, 0.00, 0.00, 0
360889, -30147.99, -31246.66, 0.00, 0.00, 0.00, 0.00, 0.00, 0.00, 0
360890, -30213.86, -31410.48, 0.00, 0.00, 0.00, 0.00, 0.00, 0.00, 0
360891, -30150.09, -31188.55, 0.00, 0.00, 0.00, 0.00, 0.00, 0.00, 0
360892, -30072.79, -30996.39, 0.00, 0.00, 0.00, 0.00, 0.00, 0.00, 0
360893, -30122.08, -31176.53, 0.00, 0.00, 0.00, 0.00, 0.00, 0.00, 0
360894, -30204.52, -31395.64, 0.00, 0.00, 0.00, 0.00, 0.00, 0.00, 0
360895, -30161.58, -31224.63, 0.00, 0.00, 0.00, 0.00, 0.00, 0.00, 0
360896, -30068.48, -30983.38, 0.00, 0.00, 0.00, 0.00, 0.00, 0.00, 0
360897, -30099.26, -31131.04, 0.00, 0.00, 0.00, 0.00, 0.00, 0.00, 0
360898, -30186.61, -31393.96, 0.00, 0.00, 0.00, 0.00, 0.00, 0.00, 0
360899, -30170.36, -31297.16, 0.00, 0.00, 0.00, 0.00, 0.00, 0.00, 0
360900, -30080.15, -31018.12, 0.00, 0.00, 0.00, 0.00, 0.00, 0.00, 0
360901, -30088.69, -31067.78, 0.00, 0.00, 0.00, 0.00, 0.00, 0.00, 0
360902, -30182.77, -31359.32, 0.00, 0.00, 0.00, 0.00, 0.00, 0.00, 0
360903, -30191.86, -31337.01, 0.00, 0.00, 0.00, 0.00, 0.00, 0.00, 0
360904, -30096.87, -31032.58, 0.00, 0.00, 0.00, 0.00, 0.00, 0.00, 0
360905, -30084.04, -31036.60, 0.00, 0.00, 0.00, 0.00, 0.00, 0.00, 0
360906, -30169.40, -31331.31, 0.00, 0.00, 0.00, 0.00, 0.00, 0.00, 0
360907, -30201.05, -31369.80, 0.00, 0.00, 0.00, 0.00, 0.00, 0.00, 0
360908, -30111.44, -31086.94, 0.00, 0.00, 0.00, 0.00, 0.00, 0.00, 0
360909, -30073.53, -31012.37, 0.00, 0.00, 0.00, 0.00, 0.00, 0.00, 0
360910, -30148.19, -31275.65, 0.00, 0.00, 0.00, 0.00, 0.00, 0.00, 0
360911, -30199.20, -31389.60, 0.00, 0.00, 0.00, 0.00, 0.00, 0.00, 0
360912, -30118.79, -31136.74, 0.00, 0.00, 0.00, 0.00, 0.00, 0.00, 0
360913, -30057.31, -30993.02, 0.00, 0.00, 0.00, 0.00, 0.00, 0.00, 0
360914, -30127.24, -31208.20, 0.00, 0.00, 0.00, 0.00, 0.00, 0.00, 0
360915, -30198.88, -31371.28, 0.00, 0.00, 0.00, 0.00, 0.00, 0.00, 0
360916, -30144.34, -31183.45, 0.00, 0.00, 0.00, 0.00, 0.00, 0.00, 0
360917, -30070.34, -31013.29, 0.00, 0.00, 0.00, 0.00, 0.00, 0.00, 0
360918, -30114.21, -31179.65, 0.00, 0.00, 0.00, 0.00, 0.00, 0.00, 0
360919, -30199.78, -31396.15, 0.00, 0.00, 0.00, 0.00, 0.00, 0.00, 0
360920, -30159.81, -31250.24, 0.00, 0.00, 0.00, 0.00, 0.00, 0.00, 0
360921, -30071.97, -31019.01, 0.00, 0.00, 0.00, 0.00, 0.00, 0.00, 0
360922, -30098.63, -31125.79, 0.00, 0.00, 0.00, 0.00, 0.00, 0.00, 0
360923, -30186.90, -31366.13, 0.00, 0.00, 0.00, 0.00, 0.00, 0.00, 0
360924, -30173.31, -31273.98, 0.00, 0.00, 0.00, 0.00, 0.00, 0.00, 0
360925, -30084.69, -31019.79, 0.00, 0.00, 0.00, 0.00, 0.00, 0.00, 0
360926, -30097.12, -31089.33, 0.00, 0.00, 0.00, 0.00, 0.00, 0.00, 0
360927, -30188.53, -31349.71, 0.00, 0.00, 0.00, 0.00, 0.00, 0.00, 0
360928, -30193.07, -31333.81, 0.00, 0.00, 0.00, 0.00, 0.00, 0.00, 0
360929, -30104.76, -31075.65, 0.00, 0.00, 0.00, 0.00, 0.00, 0.00, 0
360930, -30086.36, -31051.04, 0.00, 0.00, 0.00, 0.00, 0.00, 0.00, 0
360931, -30174.68, -31306.10, 0.00, 0.00, 0.00, 0.00, 0.00, 0.00, 0
360932, -30207.87, -31364.17, 0.00, 0.00, 0.00, 0.00, 0.00, 0.00, 0
360933, -30123.54, -31111.15, 0.00, 0.00, 0.00, 0.00, 0.00, 0.00, 0
360934, -30087.32, -31032.63, 0.00, 0.00, 0.00, 0.00, 0.00, 0.00, 0
360935, -30160.93, -31264.14, 0.00, 0.00, 0.00, 0.00, 0.00, 0.00, 0
360936, -30212.79, -31382.38, 0.00, 0.00, 0.00, 0.00, 0.00, 0.00, 0
360937, -30135.89, -31148.05, 0.00, 0.00, 0.00, 0.00, 0.00, 0.00, 0
360938, -30075.52, -30995.88, 0.00, 0.00, 0.00, 0.00, 0.00, 0.00, 0
360939, -30134.53, -31189.64, 0.00, 0.00, 0.00, 0.00, 0.00, 0.00, 0
360940, -30206.39, -31370.63, 0.00, 0.00, 0.00, 0.00, 0.00, 0.00, 0
360941, -30149.11, -31194.27, 0.00, 0.00, 0.00, 0.00, 0.00, 0.00, 0
360942, -30069.24, -31002.67, 0.00, 0.00, 0.00, 0.00, 0.00, 0.00, 0
360943, -30114.77, -31158.24, 0.00, 0.00, 0.00, 0.00, 0.00, 0.00, 0
360944, -30199.13, -31379.32, 0.00, 0.00, 0.00, 0.00, 0.00, 0.00, 0
360945, -30167.39, -31262.65, 0.00, 0.00, 0.00, 0.00, 0.00, 0.00, 0
360946, -30079.50, -31034.37, 0.00, 0.00, 0.00, 0.00, 0.00, 0.00, 0
360947, -30104.24, -31117.92, 0.00, 0.00, 0.00, 0.00, 0.00, 0.00, 0
360948, -30199.66, -31362.78, 0.00, 0.00, 0.00, 0.00, 0.00, 0.00, 0
360949, -30189.56, -31305.14, 0.00, 0.00, 0.00, 0.00, 0.00, 0.00, 0
360950, -30097.29, -31053.03, 0.00, 0.00, 0.00, 0.00, 0.00, 0.00, 0
360951, -30083.44, -31036.80, 0.00, 0.00, 0.00, 0.00, 0.00, 0.00, 0
360952, -30121.12, -31113.05, 0.00, 0.00, 0.00, 0.00, 0.00, 0.00, 0
360953, -30130.87, -31132.67, 0.00, 0.00, 0.00, 0.00, 0.00, 0.00, 0
360954, -30128.54, -31119.26, 0.00, 0.00, 0.00, 0.00, 0.00, 0.00, 0
360955, -30132.99, -31136.89, 0.00, 0.00, 0.00, 0.00, 0.00, 0.00, 0
360956, -30137.79, -31169.64, 0.00, 0.00, 0.00, 0.00, 0.00, 0.00, 0
360957, -30139.40, -31178.20, 0.00, 0.00, 0.00, 0.00, 0.00, 0.00, 0
360958, -30135.63, -31166.18, 0.00, 0.00, 0.00, 0.00, 0.00, 0.00, 0
360959, -30134.02, -31169.04, 0.00, 0.00, 0.00, 0.00, 0.00, 0.00, 0
360960, -30136.32, -31195.70, 0.00, 0.00, 0.00, 0.00, 0.00, 0.00, 0
360961, -30137.57, -31202.83, 0.00, 0.00, 0.00, 0.00, 0.00, 0.00, 0
360962, -30132.25, -31174.85, 0.00, 0.00, 0.00, 0.00, 0.00, 0.00, 0
360963, -30133.30, -31167.76, 0.00, 0.00, 0.00, 0.00, 0.00, 0.00, 0
360964, -30133.03, -31191.21, 0.00, 0.00, 0.00, 0.00, 0.00, 0.00, 0
360965, -30138.69, -31197.94, 0.00, 0.00, 0.00, 0.00, 0.00, 0.00, 0
360966, -30137.46, -31168.97, 0.00, 0.00, 0.00, 0.00, 0.00, 0.00, 0
360967, -30130.98, -31143.71, 0.00, 0.00, 0.00, 0.00, 0.00, 0.00, 0
360968, -30132.83, -31159.25, 0.00, 0.00, 0.00, 0.00, 0.00, 0.00, 0
360969, -30138.67, -31186.58, 0.00, 0.00, 0.00, 0.00, 0.00, 0.00, 0
360970, -30134.89, -31170.83, 0.00, 0.00, 0.00, 0.00, 0.00, 0.00, 0
360971, -30121.30, -31131.33, 0.00, 0.00, 0.00, 0.00, 0.00, 0.00, 0
360972, -30123.60, -31128.02, 0.00, 0.00, 0.00, 0.00, 0.00, 0.00, 0
360973, -30137.84, -31151.00, 0.00, 0.00, 0.00, 0.00, 0.00, 0.00, 0
360974, -30134.24, -31151.02, 0.00, 0.00, 0.00, 0.00, 0.00, 0.00, 0
360975, -30131.51, -31173.35, 0.00, 0.00, 0.00, 0.00, 0.00, 0.00, 0
360976, -30139.22, -31217.99, 0.00, 0.00, 0.00, 0.00, 0.00, 0.00, 0
360977, -30146.47, -31228.00, 0.00, 0.00, 0.00, 0.00, 0.00, 0.00, 0
360978, -30142.15, -31176.57, 0.00, 0.00, 0.00, 0.00, 0.00, 0.00, 0
360979, -30133.32, -31130.97, 0.00, 0.00, 0.00, 0.00, 0.00, 0.00, 0
360980, -30130.08, -31167.32, 0.00, 0.00, 0.00, 0.00, 0.00, 0.00, 0
360981, -30137.66, -31230.88, 0.00, 0.00, 0.00, 0.00, 0.00, 0.00, 0
360982, -30141.37, -31225.05, 0.00, 0.00, 0.00, 0.00, 0.00, 0.00, 0
360983, -30133.99, -31186.58, 0.00, 0.00, 0.00, 0.00, 0.00, 0.00, 0
360984, -30136.43, -31206.14, 0.00, 0.00, 0.00, 0.00, 0.00, 0.00, 0
360985, -30144.25, -31233.01, 0.00, 0.00, 0.00, 0.00, 0.00, 0.00, 0
360986, -30144.97, -31213.92, 0.00, 0.00, 0.00, 0.00, 0.00, 0.00, 0
360987, -30136.99, -31188.13, 0.00, 0.00, 0.00, 0.00, 0.00, 0.00, 0
360988, -30131.54, -31202.34, 0.00, 0.00, 0.00, 0.00, 0.00, 0.00, 0
360989, -30134.69, -31232.99, 0.00, 0.00, 0.00, 0.00, 0.00, 0.00, 0
360990, -30142.69, -31226.71, 0.00, 0.00, 0.00, 0.00, 0.00, 0.00, 0
360991, -30143.58, -31185.13, 0.00, 0.00, 0.00, 0.00, 0.00, 0.00, 0
360992, -30138.73, -31156.07, 0.00, 0.00, 0.00, 0.00, 0.00, 0.00, 0
360993, -30140.32, -31176.21, 0.00, 0.00, 0.00, 0.00, 0.00, 0.00, 0
360994, -30145.62, -31198.88, 0.00, 0.00, 0.00, 0.00, 0.00, 0.00, 0
360995, -30144.70, -31190.07, 0.00, 0.00, 0.00, 0.00, 0.00, 0.00, 0
360996, -30133.62, -31171.85, 0.00, 0.00, 0.00, 0.00, 0.00, 0.00, 0
360997, -30128.72, -31200.55, 0.00, 0.00, 0.00, 0.00, 0.00, 0.00, 0
360998, -30136.05, -31208.76, 0.00, 0.00, 0.00, 0.00, 0.00, 0.00, 0
360999, -30129.79, -31174.00, 0.00, 0.00, 0.00, 0.00, 0.00, 0.00, 0
361000, -30123.33, -31161.24, 0.00, 0.00, 0.00, 0.00, 0.00, 0.00, 0
361001, -30131.69, -31196.64, 0.00, 0.00, 0.00, 0.00, 0.00, 0.00, 0
361002, -30139.56, -31213.14, 0.00, 0.00, 0.00, 0.00, 0.00, 0.00, 0
361003, -30138.82, -31203.53, 0.00, 0.00, 0.00, 0.00, 0.00, 0.00, 0
361004, -30129.79, -31171.61, 0.00, 0.00, 0.00, 0.00, 0.00, 0.00, 0
361005, -30130.20, -31165.75, 0.00, 0.00, 0.00, 0.00, 0.00, 0.00, 0
361006, -30136.83, -31196.80, 0.00, 0.00, 0.00, 0.00, 0.00, 0.00, 0
361007, -30135.07, -31214.32, 0.00, 0.00, 0.00, 0.00, 0.00, 0.00, 0
361008, -30131.42, -31180.93, 0.00, 0.00, 0.00, 0.00, 0.00, 0.00, 0
361009, -30129.32, -31171.43, 0.00, 0.00, 0.00, 0.00, 0.00, 0.00, 0
361010, -30130.11, -31203.53, 0.00, 0.00, 0.00, 0.00, 0.00, 0.00, 0
361011, -30130.87, -31211.68, 0.00, 0.00, 0.00, 0.00, 0.00, 0.00, 0
361012, -30130.31, -31181.76, 0.00, 0.00, 0.00, 0.00, 0.00, 0.00, 0
361013, -30125.30, -31175.16, 0.00, 0.00, 0.00, 0.00, 0.00, 0.00, 0
361014, -30128.72, -31198.99, 0.00, 0.00, 0.00, 0.00, 0.00, 0.00, 0
361015, -30132.14, -31208.46, 0.00, 0.00, 0.00, 0.00, 0.00, 0.00, 0
361016, -30127.29, -31179.05, 0.00, 0.00, 0.00, 0.00, 0.00, 0.00, 0
361017, -30122.04, -31161.42, 0.00, 0.00, 0.00, 0.00, 0.00, 0.00, 0
361018, -30124.58, -31189.38, 0.00, 0.00, 0.00, 0.00, 0.00, 0.00, 0
361019, -30130.37, -31208.49, 0.00, 0.00, 0.00, 0.00, 0.00, 0.00, 0
361020, -30129.19, -31182.87, 0.00, 0.00, 0.00, 0.00, 0.00, 0.00, 0
361021, -30123.15, -31154.17, 0.00, 0.00, 0.00, 0.00, 0.00, 0.00, 0
361022, -30126.55, -31174.80, 0.00, 0.00, 0.00, 0.00, 0.00, 0.00, 0
361023, -30137.79, -31205.58, 0.00, 0.00, 0.00, 0.00, 0.00, 0.00, 0
361024, -30136.10, -31192.30, 0.00, 0.00, 0.00, 0.00, 0.00, 0.00, 0
361025, -30129.55, -31166.98, 0.00, 0.00, 0.00, 0.00, 0.00, 0.00, 0
361026, -30129.75, -31182.81, 0.00, 0.00, 0.00, 0.00, 0.00, 0.00, 0
361027, -30127.85, -31209.09, 0.00, 0.00, 0.00, 0.00, 0.00, 0.00, 0
361028, -30136.32, -31203.88, 0.00, 0.00, 0.00, 0.00, 0.00, 0.00, 0
361029, -30133.86, -31165.53, 0.00, 0.00, 0.00, 0.00, 0.00, 0.00, 0
361030, -30131.80, -31169.51, 0.00, 0.00, 0.00, 0.00, 0.00, 0.00, 0
361031, -30138.89, -31212.06, 0.00, 0.00, 0.00, 0.00, 0.00, 0.00, 0
361032, -30142.42, -31199.37, 0.00, 0.00, 0.00, 0.00, 0.00, 0.00, 0
361033, -30131.80, -31147.38, 0.00, 0.00, 0.00, 0.00, 0.00, 0.00, 0
361034, -30130.44, -31160.14, 0.00, 0.00, 0.00, 0.00, 0.00, 0.00, 0
361035, -30133.62, -31205.87, 0.00, 0.00, 0.00, 0.00, 0.00, 0.00, 0
361036, -30139.45, -31220.45, 0.00, 0.00, 0.00, 0.00, 0.00, 0.00, 0
361037, -30139.02, -31179.81, 0.00, 0.00, 0.00, 0.00, 0.00, 0.00, 0
361038, -30129.84, -31144.25, 0.00, 0.00, 0.00, 0.00, 0.00, 0.00, 0
361039, -30132.43, -31179.97, 0.00, 0.00, 0.00, 0.00, 0.00, 0.00, 0
361040, -30143.14, -31229.01, 0.00, 0.00, 0.00, 0.00, 0.00, 0.00, 0
361041, -30139.18, -31199.59, 0.00, 0.00, 0.00, 0.00, 0.00, 0.00, 0
361042, -30127.71, -31146.51, 0.00, 0.00, 0.00, 0.00, 0.00, 0.00, 0
361043, -30125.28, -31174.24, 0.00, 0.00, 0.00, 0.00, 0.00, 0.00, 0
361044, -30135.87, -31239.78, 0.00, 0.00, 0.00, 0.00, 0.00, 0.00, 0
361045, -30134.91, -31203.91, 0.00, 0.00, 0.00, 0.00, 0.00, 0.00, 0
361046, -30126.22, -31149.21, 0.00, 0.00, 0.00, 0.00, 0.00, 0.00, 0
361047, -30123.96, -31183.39, 0.00, 0.00, 0.00, 0.00, 0.00, 0.00, 0
361048, -30131.36, -31237.59, 0.00, 0.00, 0.00, 0.00, 0.00, 0.00, 0
361049, -30135.34, -31217.43, 0.00, 0.00, 0.00, 0.00, 0.00, 0.00, 0
361050, -30129.32, -31160.48, 0.00, 0.00, 0.00, 0.00, 0.00, 0.00, 0
361051, -30126.78, -31170.29, 0.00, 0.00, 0.00, 0.00, 0.00, 0.00, 0
361052, -30131.96, -31233.70, 0.00, 0.00, 0.00, 0.00, 0.00, 0.00, 0
361053, -30133.99, -31226.71, 0.00, 0.00, 0.00, 0.00, 0.00, 0.00, 0
361054, -30129.17, -31150.17, 0.00, 0.00, 0.00, 0.00, 0.00, 0.00, 0
361055, -30124.58, -31153.97, 0.00, 0.00, 0.00, 0.00, 0.00, 0.00, 0
361056, -30126.15, -31244.41, 0.00, 0.00, 0.00, 0.00, 0.00, 0.00, 0
361057, -30136.16, -31260.75, 0.00, 0.00, 0.00, 0.00, 0.00, 0.00, 0
361058, -30133.59, -31177.02, 0.00, 0.00, 0.00, 0.00, 0.00, 0.00, 0
361059, -30123.60, -31137.19, 0.00, 0.00, 0.00, 0.00, 0.00, 0.00, 0
361060, -30124.58, -31213.63, 0.00, 0.00, 0.00, 0.00, 0.00, 0.00, 0
361061, -30138.06, -31256.66, 0.00, 0.00, 0.00, 0.00, 0.00, 0.00, 0
361062, -30135.74, -31177.60, 0.00, 0.00, 0.00, 0.00, 0.00, 0.00, 0
361063, -30121.12, -31128.69, 0.00, 0.00, 0.00, 0.00, 0.00, 0.00, 0
361064, -30114.35, -31191.75, 0.00, 0.00, 0.00, 0.00, 0.00, 0.00, 0
361065, -30123.42, -31244.74, 0.00, 0.00, 0.00, 0.00, 0.00, 0.00, 0
361066, -30133.59, -31184.42, 0.00, 0.00, 0.00, 0.00, 0.00, 0.00, 0
361067, -30126.57, -31119.93, 0.00, 0.00, 0.00, 0.00, 0.00, 0.00, 0
361068, -30116.36, -31170.33, 0.00, 0.00, 0.00, 0.00, 0.00, 0.00, 0
361069, -30124.70, -31257.64, 0.00, 0.00, 0.00, 0.00, 0.00, 0.00, 0
361070, -30134.73, -31220.38, 0.00, 0.00, 0.00, 0.00, 0.00, 0.00, 0
361071, -30123.47, -31124.78, 0.00, 0.00, 0.00, 0.00, 0.00, 0.00, 0
361072, -30120.34, -31153.44, 0.00, 0.00, 0.00, 0.00, 0.00, 0.00, 0
361073, -30133.37, -31236.67, 0.00, 0.00, 0.00, 0.00, 0.00, 0.00, 0
361074, -30137.88, -31215.51, 0.00, 0.00, 0.00, 0.00, 0.00, 0.00, 0
361075, -30130.06, -31128.51, 0.00, 0.00, 0.00, 0.00, 0.00, 0.00, 0
361076, -30127.60, -31141.77, 0.00, 0.00, 0.00, 0.00, 0.00, 0.00, 0
361077, -30133.06, -31243.09, 0.00, 0.00, 0.00, 0.00, 0.00, 0.00, 0
361078, -30146.15, -31249.59, 0.00, 0.00, 0.00, 0.00, 0.00, 0.00, 0
361079, -30146.40, -31152.09, 0.00, 0.00, 0.00, 0.00, 0.00, 0.00, 0
361080, -30135.65, -31138.42, 0.00, 0.00, 0.00, 0.00, 0.00, 0.00, 0
361081, -30136.56, -31248.63, 0.00, 0.00, 0.00, 0.00, 0.00, 0.00, 0
361082, -30143.43, -31272.88, 0.00, 0.00, 0.00, 0.00, 0.00, 0.00, 0
361083, -30141.75, -31157.30, 0.00, 0.00, 0.00, 0.00, 0.00, 0.00, 0
361084, -30125.26, -31095.01, 0.00, 0.00, 0.00, 0.00, 0.00, 0.00, 0
361085, -30123.94, -31195.93, 0.00, 0.00, 0.00, 0.00, 0.00, 0.00, 0
361086, -30145.55, -31274.04, 0.00, 0.00, 0.00, 0.00, 0.00, 0.00, 0
361087, -30147.72, -31173.28, 0.00, 0.00, 0.00, 0.00, 0.00, 0.00, 0
361088, -30134.98, -31098.29, 0.00, 0.00, 0.00, 0.00, 0.00, 0.00, 0
361089, -30127.78, -31194.76, 0.00, 0.00, 0.00, 0.00, 0.00, 0.00, 0
361090, -30142.15, -31280.75, 0.00, 0.00, 0.00, 0.00, 0.00, 0.00, 0
361091, -30149.71, -31183.54, 0.00, 0.00, 0.00, 0.00, 0.00, 0.00, 0
361092, -30133.19, -31080.23, 0.00, 0.00, 0.00, 0.00, 0.00, 0.00, 0
361093, -30124.67, -31163.52, 0.00, 0.00, 0.00, 0.00, 0.00, 0.00, 0
361094, -30140.41, -31288.39, 0.00, 0.00, 0.00, 0.00, 0.00, 0.00, 0
361095, -30147.27, -31234.24, 0.00, 0.00, 0.00, 0.00, 0.00, 0.00, 0
361096, -30129.73, -31112.22, 0.00, 0.00, 0.00, 0.00, 0.00, 0.00, 0
361097, -30115.20, -31150.08, 0.00, 0.00, 0.00, 0.00, 0.00, 0.00, 0
361098, -30127.00, -31264.03, 0.00, 0.00, 0.00, 0.00, 0.00, 0.00, 0
361099, -30142.78, -31245.19, 0.00, 0.00, 0.00, 0.00, 0.00, 0.00, 0
361100, -30135.98, -31120.09, 0.00, 0.00, 0.00, 0.00, 0.00, 0.00, 0
361101, -30118.08, -31119.33, 0.00, 0.00, 0.00, 0.00, 0.00, 0.00, 0
361102, -30124.29, -31248.95, 0.00, 0.00, 0.00, 0.00, 0.00, 0.00, 0
361103, -30143.61, -31266.54, 0.00, 0.00, 0.00, 0.00, 0.00, 0.00, 0
361104, -30135.49, -31133.05, 0.00, 0.00, 0.00, 0.00, 0.00, 0.00, 0
361105, -30117.90, -31109.13, 0.00, 0.00, 0.00, 0.00, 0.00, 0.00, 0
361106, -30121.93, -31237.93, 0.00, 0.00, 0.00, 0.00, 0.00, 0.00, 0
361107, -30143.90, -31279.52, 0.00, 0.00, 0.00, 0.00, 0.00, 0.00, 0
361108, -30142.80, -31150.51, 0.00, 0.00, 0.00, 0.00, 0.00, 0.00, 0
361109, -30124.03, -31081.46, 0.00, 0.00, 0.00, 0.00, 0.00, 0.00, 0
361110, -30115.29, -31184.91, 0.00, 0.00, 0.00, 0.00, 0.00, 0.00, 0
361111, -30138.80, -31262.02, 0.00, 0.00, 0.00, 0.00, 0.00, 0.00, 0
361112, -30146.11, -31164.39, 0.00, 0.00, 0.00, 0.00, 0.00, 0.00, 0
361113, -30131.96, -31094.23, 0.00, 0.00, 0.00, 0.00, 0.00, 0.00, 0
361114, -30125.46, -31189.96, 0.00, 0.00, 0.00, 0.00, 0.00, 0.00, 0
361115, -30138.78, -31281.20, 0.00, 0.00, 0.00, 0.00, 0.00, 0.00, 0
361116, -30141.79, -31201.56, 0.00, 0.00, 0.00, 0.00, 0.00, 0.00, 0
361117, -30126.42, -31099.08, 0.00, 0.00, 0.00, 0.00, 0.00, 0.00, 0
361118, -30116.07, -31151.98, 0.00, 0.00, 0.00, 0.00, 0.00, 0.00, 0
361119, -30130.84, -31248.72, 0.00, 0.00, 0.00, 0.00, 0.00, 0.00, 0
361120, -30145.30, -31230.15, 0.00, 0.00, 0.00, 0.00, 0.00, 0.00, 0
361121, -30131.87, -31138.04, 0.00, 0.00, 0.00, 0.00, 0.00, 0.00, 0
361122, -30116.90, -31170.40, 0.00, 0.00, 0.00, 0.00, 0.00, 0.00, 0
361123, -30127.00, -31299.91, 0.00, 0.00, 0.00, 0.00, 0.00, 0.00, 0
361124, -30145.33, -31284.73, 0.00, 0.00, 0.00, 0.00, 0.00, 0.00, 0
361125, -30139.36, -31141.03, 0.00, 0.00, 0.00, 0.00, 0.00, 0.00, 0
361126, -30126.33, -31130.90, 0.00, 0.00, 0.00, 0.00, 0.00, 0.00, 0
361127, -30137.28, -31261.37, 0.00, 0.00, 0.00, 0.00, 0.00, 0.00, 0
361128, -30156.88, -31277.89, 0.00, 0.00, 0.00, 0.00, 0.00, 0.00, 0
361129, -30150.87, -31135.67, 0.00, 0.00, 0.00, 0.00, 0.00, 0.00, 0
361130, -30133.64, -31097.91, 0.00, 0.00, 0.00, 0.00, 0.00, 0.00, 0
361131, -30137.24, -31227.26, 0.00, 0.00, 0.00, 0.00, 0.00, 0.00, 0
361132, -30155.63, -31277.42, 0.00, 0.00, 0.00, 0.00, 0.00, 0.00, 0
361133, -30152.44, -31149.68, 0.00, 0.00, 0.00, 0.00, 0.00, 0.00, 0
361134, -30127.98, -31082.49, 0.00, 0.00, 0.00, 0.00, 0.00, 0.00, 0
361135, -30124.63, -31199.28, 0.00, 0.00, 0.00, 0.00, 0.00, 0.00, 0
361136, -30145.66, -31277.18, 0.00, 0.00, 0.00, 0.00, 0.00, 0.00, 0
361137, -30147.25, -31176.64, 0.00, 0.00, 0.00, 0.00, 0.00, 0.00, 0
361138, -30133.95, -31100.46, 0.00, 0.00, 0.00, 0.00, 0.00, 0.00, 0
361139, -30132.99, -31201.94, 0.00, 0.00, 0.00, 0.00, 0.00, 0.00, 0
361140, -30150.60, -31310.55, 0.00, 0.00, 0.00, 0.00, 0.00, 0.00, 0
361141, -30156.21, -31222.08, 0.00, 0.00, 0.00, 0.00, 0.00, 0.00, 0
361142, -30139.02, -31099.03, 0.00, 0.00, 0.00, 0.00, 0.00, 0.00, 0
361143, -30131.22, -31164.19, 0.00, 0.00, 0.00, 0.00, 0.00, 0.00, 0
361144, -30148.08, -31288.33, 0.00, 0.00, 0.00, 0.00, 0.00, 0.00, 0
361145, -30160.75, -31233.79, 0.00, 0.00, 0.00, 0.00, 0.00, 0.00, 0
361146, -30144.93, -31098.12, 0.00, 0.00, 0.00, 0.00, 0.00, 0.00, 0
361147, -30131.85, -31133.14, 0.00, 0.00, 0.00, 0.00, 0.00, 0.00, 0
361148, -30140.28, -31269.22, 0.00, 0.00, 0.00, 0.00, 0.00, 0.00, 0
361149, -30151.76, -31244.03, 0.00, 0.00, 0.00, 0.00, 0.00, 0.00, 0
361150, -30144.66, -31100.08, 0.00, 0.00, 0.00, 0.00, 0.00, 0.00, 0
361151, -30128.72, -31103.14, 0.00, 0.00, 0.00, 0.00, 0.00, 0.00, 0
361152, -30134.42, -31245.21, 0.00, 0.00, 0.00, 0.00, 0.00, 0.00, 0
361153, -30155.72, -31260.66, 0.00, 0.00, 0.00, 0.00, 0.00, 0.00, 0
361154, -30152.66, -31116.24, 0.00, 0.00, 0.00, 0.00, 0.00, 0.00, 0
361155, -30131.51, -31086.78, 0.00, 0.00, 0.00, 0.00, 0.00, 0.00, 0
361156, -30131.00, -31229.07, 0.00, 0.00, 0.00, 0.00, 0.00, 0.00, 0
361157, -30155.99, -31287.43, 0.00, 0.00, 0.00, 0.00, 0.00, 0.00, 0
361158, -30150.67, -31156.12, 0.00, 0.00, 0.00, 0.00, 0.00, 0.00, 0
361159, -30120.85, -31072.23, 0.00, 0.00, 0.00, 0.00, 0.00, 0.00, 0
361160, -30118.97, -31185.49, 0.00, 0.00, 0.00, 0.00, 0.00, 0.00, 0
361161, -30143.94, -31293.76, 0.00, 0.00, 0.00, 0.00, 0.00, 0.00, 0
361162, -30151.81, -31201.43, 0.00, 0.00, 0.00, 0.00, 0.00, 0.00, 0
361163, -30132.70, -31087.74, 0.00, 0.00, 0.00, 0.00, 0.00, 0.00, 0
361164, -30130.04, -31169.06, 0.00, 0.00, 0.00, 0.00, 0.00, 0.00, 0
361165, -30153.42, -31304.00, 0.00, 0.00, 0.00, 0.00, 0.00, 0.00, 0
361166, -30161.64, -31225.74, 0.00, 0.00, 0.00, 0.00, 0.00, 0.00, 0
361167, -30144.19, -31097.18, 0.00, 0.00, 0.00, 0.00, 0.00, 0.00, 0
361168, -30130.46, -31157.30, 0.00, 0.00, 0.00, 0.00, 0.00, 0.00, 0
361169, -30147.29, -31294.50, 0.00, 0.00, 0.00, 0.00, 0.00, 0.00, 0
361170, -30161.31, -31238.60, 0.00, 0.00, 0.00, 0.00, 0.00, 0.00, 0
361171, -30149.08, -31089.20, 0.00, 0.00, 0.00, 0.00, 0.00, 0.00, 0
361172, -30133.39, -31127.13, 0.00, 0.00, 0.00, 0.00, 0.00, 0.00, 0
361173, -30144.48, -31278.96, 0.00, 0.00, 0.00, 0.00, 0.00, 0.00, 0
361174, -30161.26, -31271.30, 0.00, 0.00, 0.00, 0.00, 0.00, 0.00, 0
361175, -30146.31, -31119.95, 0.00, 0.00, 0.00, 0.00, 0.00, 0.00, 0
361176, -30125.99, -31102.56, 0.00, 0.00, 0.00, 0.00, 0.00, 0.00, 0
361177, -30136.99, -31246.62, 0.00, 0.00, 0.00, 0.00, 0.00, 0.00, 0
361178, -30158.96, -31279.52, 0.00, 0.00, 0.00, 0.00, 0.00, 0.00, 0
361179, -30155.54, -31143.22, 0.00, 0.00, 0.00, 0.00, 0.00, 0.00, 0
361180, -30136.59, -31092.77, 0.00, 0.00, 0.00, 0.00, 0.00, 0.00, 0
361181, -30138.98, -31220.69, 0.00, 0.00, 0.00, 0.00, 0.00, 0.00, 0
361182, -30157.69, -31286.12, 0.00, 0.00, 0.00, 0.00, 0.00, 0.00, 0
361183, -30157.51, -31163.20, 0.00, 0.00, 0.00, 0.00, 0.00, 0.00, 0
361184, -30135.98, -31072.08, 0.00, 0.00, 0.00, 0.00, 0.00, 0.00, 0
361185, -30131.94, -31184.15, 0.00, 0.00, 0.00, 0.00, 0.00, 0.00, 0
361186, -30153.42, -31281.51, 0.00, 0.00, 0.00, 0.00, 0.00, 0.00, 0
361187, -30154.85, -31171.12, 0.00, 0.00, 0.00, 0.00, 0.00, 0.00, 0
361188, -30132.63, -31071.99, 0.00, 0.00, 0.00, 0.00, 0.00, 0.00, 0
361189, -30122.26, -31175.81, 0.00, 0.00, 0.00, 0.00, 0.00, 0.00, 0
361190, -30139.22, -31293.94, 0.00, 0.00, 0.00, 0.00, 0.00, 0.00, 0
361191, -30149.02, -31210.99, 0.00, 0.00, 0.00, 0.00, 0.00, 0.00, 0
361192, -30132.83, -31075.09, 0.00, 0.00, 0.00, 0.00, 0.00, 0.00, 0
361193, -30120.45, -31139.71, 0.00, 0.00, 0.00, 0.00, 0.00, 0.00, 0
361194, -30138.29, -31285.04, 0.00, 0.00, 0.00, 0.00, 0.00, 0.00, 0
361195, -30153.26, -31239.27, 0.00, 0.00, 0.00, 0.00, 0.00, 0.00, 0
361196, -30137.71, -31092.64, 0.00, 0.00, 0.00, 0.00, 0.00, 0.00, 0
361197, -30123.42, -31104.42, 0.00, 0.00, 0.00, 0.00, 0.00, 0.00, 0
361198, -30136.10, -31249.91, 0.00, 0.00, 0.00, 0.00, 0.00, 0.00, 0
361199, -30155.10, -31270.45, 0.00, 0.00, 0.00, 0.00, 0.00, 0.00, 0
361200, -30145.44, -31119.93, 0.00, 0.00, 0.00, 0.00, 0.00, 0.00, 0
361201, -30125.68, -31085.96, 0.00, 0.00, 0.00, 0.00, 0.00, 0.00, 0
361202, -30130.31, -31229.90, 0.00, 0.00, 0.00, 0.00, 0.00, 0.00, 0
361203, -30147.63, -31279.39, 0.00, 0.00, 0.00, 0.00, 0.00, 0.00, 0
361204, -30146.42, -31141.70, 0.00, 0.00, 0.00, 0.00, 0.00, 0.00, 0
361205, -30127.22, -31078.47, 0.00, 0.00, 0.00, 0.00, 0.00, 0.00, 0
361206, -30130.51, -31207.26, 0.00, 0.00, 0.00, 0.00, 0.00, 0.00, 0
361207, -30152.48, -31282.83, 0.00, 0.00, 0.00, 0.00, 0.00, 0.00, 0
361208, -30150.98, -31153.23, 0.00, 0.00, 0.00, 0.00, 0.00, 0.00, 0
361209, -30127.67, -31059.40, 0.00, 0.00, 0.00, 0.00, 0.00, 0.00, 0
361210, -30122.46, -31178.09, 0.00, 0.00, 0.00, 0.00, 0.00, 0.00, 0
361211, -30139.67, -31285.74, 0.00, 0.00, 0.00, 0.00, 0.00, 0.00, 0
361212, -30148.95, -31186.36, 0.00, 0.00, 0.00, 0.00, 0.00, 0.00, 0
361213, -30130.17, -31067.11, 0.00, 0.00, 0.00, 0.00, 0.00, 0.00, 0
361214, -30120.09, -31144.45, 0.00, 0.00, 0.00, 0.00, 0.00, 0.00, 0
361215, -30137.15, -31264.52, 0.00, 0.00, 0.00, 0.00, 0.00, 0.00, 0
361216, -30145.73, -31188.48, 0.00, 0.00, 0.00, 0.00, 0.00, 0.00, 0
361217, -30126.78, -31035.91, 0.00, 0.00, 0.00, 0.00, 0.00, 0.00, 0
361218, -30113.90, -31093.09, 0.00, 0.00, 0.00, 0.00, 0.00, 0.00, 0
361219, -30128.14, -31250.67, 0.00, 0.00, 0.00, 0.00, 0.00, 0.00, 0
361220, -30142.76, -31213.14, 0.00, 0.00, 0.00, 0.00, 0.00, 0.00, 0
361221, -30134.38, -31069.97, 0.00, 0.00, 0.00, 0.00, 0.00, 0.00, 0
361222, -30117.43, -31107.84, 0.00, 0.00, 0.00, 0.00, 0.00, 0.00, 0
361223, -30130.26, -31282.54, 0.00, 0.00, 0.00, 0.00, 0.00, 0.00, 0
361224, -30154.11, -31297.94, 0.00, 0.00, 0.00, 0.00, 0.00, 0.00, 0
361225, -30148.08, -31140.00, 0.00, 0.00, 0.00, 0.00, 0.00, 0.00, 0
361226, -30123.58, -31094.99, 0.00, 0.00, 0.00, 0.00, 0.00, 0.00, 0
361227, -30126.08, -31238.60, 0.00, 0.00, 0.00, 0.00, 0.00, 0.00, 0
361228, -30146.94, -31285.54, 0.00, 0.00, 0.00, 0.00, 0.00, 0.00, 0
361229, -30136.81, -31135.98, 0.00, 0.00, 0.00, 0.00, 0.00, 0.00, 0
361230, -30111.13, -31053.84, 0.00, 0.00, 0.00, 0.00, 0.00, 0.00, 0
361231, -30115.76, -31196.93, 0.00, 0.00, 0.00, 0.00, 0.00, 0.00, 0
361232, -30142.71, -31303.35, 0.00, 0.00, 0.00, 0.00, 0.00, 0.00, 0
361233, -30148.90, -31180.21, 0.00, 0.00, 0.00, 0.00, 0.00, 0.00, 0
361234, -30128.18, -31071.70, 0.00, 0.00, 0.00, 0.00, 0.00, 0.00, 0
361235, -30120.81, -31175.23, 0.00, 0.00, 0.00, 0.00, 0.00, 0.00, 0
361236, -30138.40, -31276.55, 0.00, 0.00, 0.00, 0.00, 0.00, 0.00, 0
361237, -30146.38, -31168.66, 0.00, 0.00, 0.00, 0.00, 0.00, 0.00, 0
361238, -30126.73, -31063.96, 0.00, 0.00, 0.00, 0.00, 0.00, 0.00, 0
361239, -30119.02, -31165.60, 0.00, 0.00, 0.00, 0.00, 0.00, 0.00, 0
361240, -30142.47, -31306.05, 0.00, 0.00, 0.00, 0.00, 0.00, 0.00, 0
361241, -30159.48, -31243.13, 0.00, 0.00, 0.00, 0.00, 0.00, 0.00, 0
361242, -30139.22, -31080.39, 0.00, 0.00, 0.00, 0.00, 0.00, 0.00, 0
361243, -30123.20, -31122.10, 0.00, 0.00, 0.00, 0.00, 0.00, 0.00, 0
361244, -30140.70, -31283.75, 0.00, 0.00, 0.00, 0.00, 0.00, 0.00, 0
361245, -30158.34, -31261.30, 0.00, 0.00, 0.00, 0.00, 0.00, 0.00, 0
361246, -30143.94, -31102.05, 0.00, 0.00, 0.00, 0.00, 0.00, 0.00, 0
361247, -30123.82, -31111.44, 0.00, 0.00, 0.00, 0.00, 0.00, 0.00, 0
361248, -30133.08, -31275.41, 0.00, 0.00, 0.00, 0.00, 0.00, 0.00, 0
361249, -30152.88, -31281.06, 0.00, 0.00, 0.00, 0.00, 0.00, 0.00, 0
361250, -30146.49, -31105.07, 0.00, 0.00, 0.00, 0.00, 0.00, 0.00, 0
361251, -30128.43, -31064.36, 0.00, 0.00, 0.00, 0.00, 0.00, 0.00, 0
361252, -30134.89, -31251.54, 0.00, 0.00, 0.00, 0.00, 0.00, 0.00, 0
361253, -30154.00, -31312.92, 0.00, 0.00, 0.00, 0.00, 0.00, 0.00, 0
361254, -30148.68, -31150.89, 0.00, 0.00, 0.00, 0.00, 0.00, 0.00, 0
361255, -30124.47, -31065.17, 0.00, 0.00, 0.00, 0.00, 0.00, 0.00, 0
361256, -30123.45, -31193.00, 0.00, 0.00, 0.00, 0.00, 0.00, 0.00, 0
361257, -30142.38, -31284.30, 0.00, 0.00, 0.00, 0.00, 0.00, 0.00, 0
361258, -30144.68, -31171.76, 0.00, 0.00, 0.00, 0.00, 0.00, 0.00, 0
361259, -30122.97, -31060.70, 0.00, 0.00, 0.00, 0.00, 0.00, 0.00, 0
361260, -30114.30, -31165.44, 0.00, 0.00, 0.00, 0.00, 0.00, 0.00, 0
361261, -30134.13, -31299.41, 0.00, 0.00, 0.00, 0.00, 0.00, 0.00, 0
361262, -30146.42, -31205.36, 0.00, 0.00, 0.00, 0.00, 0.00, 0.00, 0
361263, -30129.12, -31050.62, 0.00, 0.00, 0.00, 0.00, 0.00, 0.00, 0
361264, -30114.10, -31094.65, 0.00, 0.00, 0.00, 0.00, 0.00, 0.00, 0
361265, -30133.21, -31261.08, 0.00, 0.00, 0.00, 0.00, 0.00, 0.00, 0
361266, -30148.70, -31243.63, 0.00, 0.00, 0.00, 0.00, 0.00, 0.00, 0
361267, -30126.87, -31069.91, 0.00, 0.00, 0.00, 0.00, 0.00, 0.00, 0
361268, -30106.53, -31094.43, 0.00, 0.00, 0.00, 0.00, 0.00, 0.00, 0
361269, -30124.27, -31274.80, 0.00, 0.00, 0.00, 0.00, 0.00, 0.00, 0
361270, -30144.12, -31279.16, 0.00, 0.00, 0.00, 0.00, 0.00, 0.00, 0
361271, -30135.00, -31124.36, 0.00, 0.00, 0.00, 0.00, 0.00, 0.00, 0
361272, -30111.98, -31105.51, 0.00, 0.00, 0.00, 0.00, 0.00, 0.00, 0
361273, -30120.52, -31264.48, 0.00, 0.00, 0.00, 0.00, 0.00, 0.00, 0
361274, -30140.68, -31296.22, 0.00, 0.00, 0.00, 0.00, 0.00, 0.00, 0
361275, -30137.13, -31138.30, 0.00, 0.00, 0.00, 0.00, 0.00, 0.00, 0
361276, -30116.92, -31088.75, 0.00, 0.00, 0.00, 0.00, 0.00, 0.00, 0
361277, -30122.13, -31238.71, 0.00, 0.00, 0.00, 0.00, 0.00, 0.00, 0
361278, -30142.60, -31306.79, 0.00, 0.00, 0.00, 0.00, 0.00, 0.00, 0
361279, -30139.07, -31147.36, 0.00, 0.00, 0.00, 0.00, 0.00, 0.00, 0
361280, -30115.04, -31048.96, 0.00, 0.00, 0.00, 0.00, 0.00, 0.00, 0
361281, -30110.12, -31188.33, 0.00, 0.00, 0.00, 0.00, 0.00, 0.00, 0
361282, -30139.36, -31304.38, 0.00, 0.00, 0.00, 0.00, 0.00, 0.00, 0
361283, -30146.09, -31180.01, 0.00, 0.00, 0.00, 0.00, 0.00, 0.00, 0
361284, -30123.94, -31053.43, 0.00, 0.00, 0.00, 0.00, 0.00, 0.00, 0
361285, -30116.65, -31169.19, 0.00, 0.00, 0.00, 0.00, 0.00, 0.00, 0
361286, -30138.35, -31302.59, 0.00, 0.00, 0.00, 0.00, 0.00, 0.00, 0
361287, -30149.31, -31208.35, 0.00, 0.00, 0.00, 0.00, 0.00, 0.00, 0
361288, -30130.55, -31056.56, 0.00, 0.00, 0.00, 0.00, 0.00, 0.00, 0
361289, -30117.68, -31129.63, 0.00, 0.00, 0.00, 0.00, 0.00, 0.00, 0
361290, -30129.70, -31287.08, 0.00, 0.00, 0.00, 0.00, 0.00, 0.00, 0
361291, -30140.19, -31226.97, 0.00, 0.00, 0.00, 0.00, 0.00, 0.00, 0
361292, -30124.43, -31052.79, 0.00, 0.00, 0.00, 0.00, 0.00, 0.00, 0
361293, -30105.21, -31090.49, 0.00, 0.00, 0.00, 0.00, 0.00, 0.00, 0
361294, -30120.63, -31270.13, 0.00, 0.00, 0.00, 0.00, 0.00, 0.00, 0
361295, -30142.13, -31252.97, 0.00, 0.00, 0.00, 0.00, 0.00, 0.00, 0
361296, -30128.50, -31069.30, 0.00, 0.00, 0.00, 0.00, 0.00, 0.00, 0
361297, -30109.70, -31070.69, 0.00, 0.00, 0.00, 0.00, 0.00, 0.00, 0
361298, -30119.69, -31244.56, 0.00, 0.00, 0.00, 0.00, 0.00, 0.00, 0
361299, -30138.24, -31260.28, 0.00, 0.00, 0.00, 0.00, 0.00, 0.00, 0
361300, -30131.96, -31099.54, 0.00, 0.00, 0.00, 0.00, 0.00, 0.00, 0
361301, -30111.26, -31073.53, 0.00, 0.00, 0.00, 0.00, 0.00, 0.00, 0
361302, -30116.14, -31240.94, 0.00, 0.00, 0.00, 0.00, 0.00, 0.00, 0
361303, -30139.92, -31315.06, 0.00, 0.00, 0.00, 0.00, 0.00, 0.00, 0
361304, -30141.44, -31168.43, 0.00, 0.00, 0.00, 0.00, 0.00, 0.00, 0
361305, -30118.48, -31061.79, 0.00, 0.00, 0.00, 0.00, 0.00, 0.00, 0
361306, -30114.55, -31189.56, 0.00, 0.00, 0.00, 0.00, 0.00, 0.00, 0
361307, -30135.76, -31303.64, 0.00, 0.00, 0.00, 0.00, 0.00, 0.00, 0
361308, -30137.91, -31174.96, 0.00, 0.00, 0.00, 0.00, 0.00, 0.00, 0
361309, -30112.96, -31048.34, 0.00, 0.00, 0.00, 0.00, 0.00, 0.00, 0
361310, -30104.02, -31160.65, 0.00, 0.00, 0.00, 0.00, 0.00, 0.00, 0
361311, -30127.45, -31297.69, 0.00, 0.00, 0.00, 0.00, 0.00, 0.00, 0
361312, -30141.28, -31206.48, 0.00, 0.00, 0.00, 0.00, 0.00, 0.00, 0
361313, -30118.88, -31048.90, 0.00, 0.00, 0.00, 0.00, 0.00, 0.00, 0
361314, -30106.03, -31109.07, 0.00, 0.00, 0.00, 0.00, 0.00, 0.00, 0
361315, -30128.38, -31271.92, 0.00, 0.00, 0.00, 0.00, 0.00, 0.00, 0
361316, -30150.07, -31239.51, 0.00, 0.00, 0.00, 0.00, 0.00, 0.00, 0
361317, -30134.06, -31073.66, 0.00, 0.00, 0.00, 0.00, 0.00, 0.00, 0
361318, -30106.14, -31083.52, 0.00, 0.00, 0.00, 0.00, 0.00, 0.00, 0
361319, -30118.17, -31257.10, 0.00, 0.00, 0.00, 0.00, 0.00, 0.00, 0
361320, -30144.03, -31258.91, 0.00, 0.00, 0.00, 0.00, 0.00, 0.00, 0
361321, -30130.35, -31070.80, 0.00, 0.00, 0.00, 0.00, 0.00, 0.00, 0
361322, -30103.69, -31044.31, 0.00, 0.00, 0.00, 0.00, 0.00, 0.00, 0
361323, -30112.87, -31238.64, 0.00, 0.00, 0.00, 0.00, 0.00, 0.00, 0
361324, -30137.82, -31294.81, 0.00, 0.00, 0.00, 0.00, 0.00, 0.00, 0
361325, -30135.47, -31125.83, 0.00, 0.00, 0.00, 0.00, 0.00, 0.00, 0
361326, -30110.15, -31053.59, 0.00, 0.00, 0.00, 0.00, 0.00, 0.00, 0
361327, -30108.71, -31210.72, 0.00, 0.00, 0.00, 0.00, 0.00, 0.00, 0
361328, -30133.46, -31291.50, 0.00, 0.00, 0.00, 0.00, 0.00, 0.00, 0
361329, -30132.70, -31132.83, 0.00, 0.00, 0.00, 0.00, 0.00, 0.00, 0
361330, -30104.47, -31018.23, 0.00, 0.00, 0.00, 0.00, 0.00, 0.00, 0
361331, -30103.69, -31161.44, 0.00, 0.00, 0.00, 0.00, 0.00, 0.00, 0
361332, -30135.45, -31302.61, 0.00, 0.00, 0.00, 0.00, 0.00, 0.00, 0
361333, -30144.63, -31197.45, 0.00, 0.00, 0.00, 0.00, 0.00, 0.00, 0
361334, -30118.06, -31056.85, 0.00, 0.00, 0.00, 0.00, 0.00, 0.00, 0
361335, -30105.74, -31141.54, 0.00, 0.00, 0.00, 0.00, 0.00, 0.00, 0
361336, -30127.20, -31284.46, 0.00, 0.00, 0.00, 0.00, 0.00, 0.00, 0
361337, -30138.51, -31187.81, 0.00, 0.00, 0.00, 0.00, 0.00, 0.00, 0
361338, -30112.16, -31027.42, 0.00, 0.00, 0.00, 0.00, 0.00, 0.00, 0
361339, -30097.54, -31109.02, 0.00, 0.00, 0.00, 0.00, 0.00, 0.00, 0
361340, -30118.30, -31298.50, 0.00, 0.00, 0.00, 0.00, 0.00, 0.00, 0
361341, -30140.90, -31260.43, 0.00, 0.00, 0.00, 0.00, 0.00, 0.00, 0
361342, -30125.68, -31078.67, 0.00, 0.00, 0.00, 0.00, 0.00, 0.00, 0
361343, -30102.81, -31087.50, 0.00, 0.00, 0.00, 0.00, 0.00, 0.00, 0
361344, -30119.31, -31259.16, 0.00, 0.00, 0.00, 0.00, 0.00, 0.00, 0
361345, -30147.29, -31262.74, 0.00, 0.00, 0.00, 0.00, 0.00, 0.00, 0
361346, -30136.41, -31082.31, 0.00, 0.00, 0.00, 0.00, 0.00, 0.00, 0
361347, -30113.90, -31070.27, 0.00, 0.00, 0.00, 0.00, 0.00, 0.00, 0
361348, -30118.64, -31254.42, 0.00, 0.00, 0.00, 0.00, 0.00, 0.00, 0
361349, -30139.63, -31292.51, 0.00, 0.00, 0.00, 0.00, 0.00, 0.00, 0
361350, -30134.17, -31120.51, 0.00, 0.00, 0.00, 0.00, 0.00, 0.00, 0
361351, -30112.07, -31049.05, 0.00, 0.00, 0.00, 0.00, 0.00, 0.00, 0
361352, -30116.00, -31224.20, 0.00, 0.00, 0.00, 0.00, 0.00, 0.00, 0
361353, -30141.33, -31322.21, 0.00, 0.00, 0.00, 0.00, 0.00, 0.00, 0
361354, -30141.59, -31162.02, 0.00, 0.00, 0.00, 0.00, 0.00, 0.00, 0
361355, -30117.50, -31030.75, 0.00, 0.00, 0.00, 0.00, 0.00, 0.00, 0
361356, -30112.13, -31175.14, 0.00, 0.00, 0.00, 0.00, 0.00, 0.00, 0
361357, -30133.26, -31318.57, 0.00, 0.00, 0.00, 0.00, 0.00, 0.00, 0
361358, -30138.46, -31205.34, 0.00, 0.00, 0.00, 0.00, 0.00, 0.00, 0
361359, -30113.39, -31056.12, 0.00, 0.00, 0.00, 0.00, 0.00, 0.00, 0
361360, -30100.74, -31140.52, 0.00, 0.00, 0.00, 0.00, 0.00, 0.00, 0
361361, -30121.61, -31288.02, 0.00, 0.00, 0.00, 0.00, 0.00, 0.00, 0
361362, -30137.91, -31215.30, 0.00, 0.00, 0.00, 0.00, 0.00, 0.00, 0
361363, -30116.92, -31044.31, 0.00, 0.00, 0.00, 0.00, 0.00, 0.00, 0
361364, -30101.29, -31099.68, 0.00, 0.00, 0.00, 0.00, 0.00, 0.00, 0
361365, -30120.40, -31282.52, 0.00, 0.00, 0.00, 0.00, 0.00, 0.00, 0
361366, -30139.67, -31249.12, 0.00, 0.00, 0.00, 0.00, 0.00, 0.00, 0
361367, -30125.41, -31067.36, 0.00, 0.00, 0.00, 0.00, 0.00, 0.00, 0
361368, -30106.28, -31076.68, 0.00, 0.00, 0.00, 0.00, 0.00, 0.00, 0
361369, -30119.13, -31256.61, 0.00, 0.00, 0.00, 0.00, 0.00, 0.00, 0
361370, -30139.07, -31274.43, 0.00, 0.00, 0.00, 0.00, 0.00, 0.00, 0
361371, -30129.28, -31099.08, 0.00, 0.00, 0.00, 0.00, 0.00, 0.00, 0
361372, -30108.04, -31050.62, 0.00, 0.00, 0.00, 0.00, 0.00, 0.00, 0
361373, -30112.92, -31214.23, 0.00, 0.00, 0.00, 0.00, 0.00, 0.00, 0
361374, -30140.86, -31289.65, 0.00, 0.00, 0.00, 0.00, 0.00, 0.00, 0
361375, -30139.38, -31133.83, 0.00, 0.00, 0.00, 0.00, 0.00, 0.00, 0
361376, -30116.00, -31042.30, 0.00, 0.00, 0.00, 0.00, 0.00, 0.00, 0
361377, -30115.94, -31187.07, 0.00, 0.00, 0.00, 0.00, 0.00, 0.00, 0
361378, -30137.71, -31296.42, 0.00, 0.00, 0.00, 0.00, 0.00, 0.00, 0
361379, -30137.08, -31171.76, 0.00, 0.00, 0.00, 0.00, 0.00, 0.00, 0
361380, -30107.17, -31054.91, 0.00, 0.00, 0.00, 0.00, 0.00, 0.00, 0
361381, -30098.19, -31166.42, 0.00, 0.00, 0.00, 0.00, 0.00, 0.00, 0
361382, -30124.03, -31299.57, 0.00, 0.00, 0.00, 0.00, 0.00, 0.00, 0
361383, -30133.03, -31187.86, 0.00, 0.00, 0.00, 0.00, 0.00, 0.00, 0
361384, -30109.61, -31016.22, 0.00, 0.00, 0.00, 0.00, 0.00, 0.00, 0
361385, -30101.45, -31101.87, 0.00, 0.00, 0.00, 0.00, 0.00, 0.00, 0
361386, -30125.59, -31294.50, 0.00, 0.00, 0.00, 0.00, 0.00, 0.00, 0
361387, -30140.79, -31244.47, 0.00, 0.00, 0.00, 0.00, 0.00, 0.00, 0
361388, -30120.29, -31065.84, 0.00, 0.00, 0.00, 0.00, 0.00, 0.00, 0
361389, -30100.74, -31096.73, 0.00, 0.00, 0.00, 0.00, 0.00, 0.00, 0
361390, -30116.98, -31263.09, 0.00, 0.00, 0.00, 0.00, 0.00, 0.00, 0
361391, -30140.90, -31237.81, 0.00, 0.00, 0.00, 0.00, 0.00, 0.00, 0
361392, -30124.14, -31056.41, 0.00, 0.00, 0.00, 0.00, 0.00, 0.00, 0
361393, -30099.35, -31071.70, 0.00, 0.00, 0.00, 0.00, 0.00, 0.00, 0
361394, -30111.24, -31268.55, 0.00, 0.00, 0.00, 0.00, 0.00, 0.00, 0
361395, -30137.88, -31296.53, 0.00, 0.00, 0.00, 0.00, 0.00, 0.00, 0
361396, -30131.78, -31114.34, 0.00, 0.00, 0.00, 0.00, 0.00, 0.00, 0
361397, -30104.85, -31060.34, 0.00, 0.00, 0.00, 0.00, 0.00, 0.00, 0
361398, -30106.21, -31212.00, 0.00, 0.00, 0.00, 0.00, 0.00, 0.00, 0
361399, -30133.88, -31274.63, 0.00, 0.00, 0.00, 0.00, 0.00, 0.00, 0
361400, -30134.15, -31131.11, 0.00, 0.00, 0.00, 0.00, 0.00, 0.00, 0
361401, -30106.57, -31043.82, 0.00, 0.00, 0.00, 0.00, 0.00, 0.00, 0
361402, -30100.22, -31174.85, 0.00, 0.00, 0.00, 0.00, 0.00, 0.00, 0
361403, -30129.30, -31307.39, 0.00, 0.00, 0.00, 0.00, 0.00, 0.00, 0
361404, -30140.19, -31194.36, 0.00, 0.00, 0.00, 0.00, 0.00, 0.00, 0
361405, -30115.33, -31060.68, 0.00, 0.00, 0.00, 0.00, 0.00, 0.00, 0
361406, -30101.96, -31171.03, 0.00, 0.00, 0.00, 0.00, 0.00, 0.00, 0
361407, -30125.70, -31306.99, 0.00, 0.00, 0.00, 0.00, 0.00, 0.00, 0
361408, -30139.20, -31204.24, 0.00, 0.00, 0.00, 0.00, 0.00, 0.00, 0
361409, -30114.64, -31040.29, 0.00, 0.00, 0.00, 0.00, 0.00, 0.00, 0
361410, -30100.13, -31118.90, 0.00, 0.00, 0.00, 0.00, 0.00, 0.00, 0
361411, -30124.61, -31290.47, 0.00, 0.00, 0.00, 0.00, 0.00, 0.00, 0
361412, -30137.55, -31232.76, 0.00, 0.00, 0.00, 0.00, 0.00, 0.00, 0
361413, -30116.85, -31057.70, 0.00, 0.00, 0.00, 0.00, 0.00, 0.00, 0
361414, -30098.88, -31088.01, 0.00, 0.00, 0.00, 0.00, 0.00, 0.00, 0
361415, -30112.63, -31259.27, 0.00, 0.00, 0.00, 0.00, 0.00, 0.00, 0
361416, -30135.11, -31244.01, 0.00, 0.00, 0.00, 0.00, 0.00, 0.00, 0
361417, -30124.34, -31070.96, 0.00, 0.00, 0.00, 0.00, 0.00, 0.00, 0
361418, -30103.60, -31066.00, 0.00, 0.00, 0.00, 0.00, 0.00, 0.00, 0
361419, -30112.04, -31241.61, 0.00, 0.00, 0.00, 0.00, 0.00, 0.00, 0
361420, -30133.30, -31277.40, 0.00, 0.00, 0.00, 0.00, 0.00, 0.00, 0
361421, -30130.51, -31105.96, 0.00, 0.00, 0.00, 0.00, 0.00, 0.00, 0
361422, -30106.01, -31039.22, 0.00, 0.00, 0.00, 0.00, 0.00, 0.00, 0
361423, -30109.95, -31197.87, 0.00, 0.00, 0.00, 0.00, 0.00, 0.00, 0
361424, -30135.00, -31284.26, 0.00, 0.00, 0.00, 0.00, 0.00, 0.00, 0
361425, -30137.48, -31145.52, 0.00, 0.00, 0.00, 0.00, 0.00, 0.00, 0
361426, -30112.67, -31044.49, 0.00, 0.00, 0.00, 0.00, 0.00, 0.00, 0
361427, -30106.84, -31173.22, 0.00, 0.00, 0.00, 0.00, 0.00, 0.00, 0
361428, -30131.47, -31290.52, 0.00, 0.00, 0.00, 0.00, 0.00, 0.00, 0
361429, -30138.73, -31178.71, 0.00, 0.00, 0.00, 0.00, 0.00, 0.00, 0
361430, -30113.03, -31046.77, 0.00, 0.00, 0.00, 0.00, 0.00, 0.00, 0
361431, -30106.95, -31154.06, 0.00, 0.00, 0.00, 0.00, 0.00, 0.00, 0
361432, -30129.37, -31303.46, 0.00, 0.00, 0.00, 0.00, 0.00, 0.00, 0
361433, -30139.78, -31216.20, 0.00, 0.00, 0.00, 0.00, 0.00, 0.00, 0
361434, -30119.98, -31054.24, 0.00, 0.00, 0.00, 0.00, 0.00, 0.00, 0
361435, -30102.99, -31118.90, 0.00, 0.00, 0.00, 0.00, 0.00, 0.00, 0
361436, -30120.92, -31283.14, 0.00, 0.00, 0.00, 0.00, 0.00, 0.00, 0
361437, -30136.92, -31231.29, 0.00, 0.00, 0.00, 0.00, 0.00, 0.00, 0
361438, -30123.58, -31060.34, 0.00, 0.00, 0.00, 0.00, 0.00, 0.00, 0
361439, -30101.25, -31089.13, 0.00, 0.00, 0.00, 0.00, 0.00, 0.00, 0
361440, -30110.46, -31265.42, 0.00, 0.00, 0.00, 0.00, 0.00, 0.00, 0
361441, -30136.25, -31261.75, 0.00, 0.00, 0.00, 0.00, 0.00, 0.00, 0
361442, -30125.66, -31078.96, 0.00, 0.00, 0.00, 0.00, 0.00, 0.00, 0
361443, -30102.37, -31048.76, 0.00, 0.00, 0.00, 0.00, 0.00, 0.00, 0
361444, -30110.75, -31220.31, 0.00, 0.00, 0.00, 0.00, 0.00, 0.00, 0
361445, -30137.08, -31274.36, 0.00, 0.00, 0.00, 0.00, 0.00, 0.00, 0
361446, -30134.08, -31104.35, 0.00, 0.00, 0.00, 0.00, 0.00, 0.00, 0
361447, -30105.05, -31031.87, 0.00, 0.00, 0.00, 0.00, 0.00, 0.00, 0
361448, -30103.53, -31192.73, 0.00, 0.00, 0.00, 0.00, 0.00, 0.00, 0
361449, -30127.49, -31271.70, 0.00, 0.00, 0.00, 0.00, 0.00, 0.00, 0
361450, -30126.37, -31108.26, 0.00, 0.00, 0.00, 0.00, 0.00, 0.00, 0
361451, -30097.16, -31011.90, 0.00, 0.00, 0.00, 0.00, 0.00, 0.00, 0
361452, -30093.40, -31190.76, 0.00, 0.00, 0.00, 0.00, 0.00, 0.00, 0
361453, -30125.37, -31330.57, 0.00, 0.00, 0.00, 0.00, 0.00, 0.00, 0
361454, -30138.13, -31198.52, 0.00, 0.00, 0.00, 0.00, 0.00, 0.00, 0
361455, -30120.47, -31057.37, 0.00, 0.00, 0.00, 0.00, 0.00, 0.00, 0
361456, -30109.92, -31156.79, 0.00, 0.00, 0.00, 0.00, 0.00, 0.00, 0
361457, -30127.40, -31286.63, 0.00, 0.00, 0.00, 0.00, 0.00, 0.00, 0
361458, -30148.97, -31194.47, 0.00, 0.00, 0.00, 0.00, 0.00, 0.00, 0
361459, -30135.27, -31052.27, 0.00, 0.00, 0.00, 0.00, 0.00, 0.00, 0
361460, -30118.42, -31112.06, 0.00, 0.00, 0.00, 0.00, 0.00, 0.00, 0
361461, -30135.25, -31281.09, 0.00, 0.00, 0.00, 0.00, 0.00, 0.00, 0
361462, -30146.40, -31235.06, 0.00, 0.00, 0.00, 0.00, 0.00, 0.00, 0
361463, -30119.78, -31050.51, 0.00, 0.00, 0.00, 0.00, 0.00, 0.00, 0
361464, -30094.57, -31065.62, 0.00, 0.00, 0.00, 0.00, 0.00, 0.00, 0
361465, -30110.64, -31228.98, 0.00, 0.00, 0.00, 0.00, 0.00, 0.00, 0
361466, -30137.28, -31241.97, 0.00, 0.00, 0.00, 0.00, 0.00, 0.00, 0
361467, -30135.43, -31095.90, 0.00, 0.00, 0.00, 0.00, 0.00, 0.00, 0
361468, -30114.33, -31080.26, 0.00, 0.00, 0.00, 0.00, 0.00, 0.00, 0
361469, -30114.77, -31247.29, 0.00, 0.00, 0.00, 0.00, 0.00, 0.00, 0
361470, -30132.23, -31274.18, 0.00, 0.00, 0.00, 0.00, 0.00, 0.00, 0
361471, -30128.72, -31086.71, 0.00, 0.00, 0.00, 0.00, 0.00, 0.00, 0
361472, -30103.84, -31012.35, 0.00, 0.00, 0.00, 0.00, 0.00, 0.00, 0
361473, -30102.23, -31179.25, 0.00, 0.00, 0.00, 0.00, 0.00, 0.00, 0
361474, -30133.99, -31271.12, 0.00, 0.00, 0.00, 0.00, 0.00, 0.00, 0
361475, -30143.63, -31106.34, 0.00, 0.00, 0.00, 0.00, 0.00, 0.00, 0
361476, -30123.20, -31011.68, 0.00, 0.00, 0.00, 0.00, 0.00, 0.00, 0
361477, -30115.53, -31178.80, 0.00, 0.00, 0.00, 0.00, 0.00, 0.00, 0
361478, -30136.65, -31298.57, 0.00, 0.00, 0.00, 0.00, 0.00, 0.00, 0
361479, -30144.30, -31161.13, 0.00, 0.00, 0.00, 0.00, 0.00, 0.00, 0
361480, -30121.86, -31008.39, 0.00, 0.00, 0.00, 0.00, 0.00, 0.00, 0
361481, -30109.72, -31123.87, 0.00, 0.00, 0.00, 0.00, 0.00, 0.00, 0
361482, -30127.40, -31298.90, 0.00, 0.00, 0.00, 0.00, 0.00, 0.00, 0
361483, -30138.15, -31215.60, 0.00, 0.00, 0.00, 0.00, 0.00, 0.00, 0
361484, -30114.55, -31047.44, 0.00, 0.00, 0.00, 0.00, 0.00, 0.00, 0
361485, -30091.82, -31098.83, 0.00, 0.00, 0.00, 0.00, 0.00, 0.00, 0
361486, -30106.44, -31269.78, 0.00, 0.00, 0.00, 0.00, 0.00, 0.00, 0
361487, -30129.97, -31236.12, 0.00, 0.00, 0.00, 0.00, 0.00, 0.00, 0
361488, -30119.27, -31046.50, 0.00, 0.00, 0.00, 0.00, 0.00, 0.00, 0
361489, -30097.05, -31031.42, 0.00, 0.00, 0.00, 0.00, 0.00, 0.00, 0
361490, -30108.96, -31197.13, 0.00, 0.00, 0.00, 0.00, 0.00, 0.00, 0
361491, -30133.06, -31235.13, 0.00, 0.00, 0.00, 0.00, 0.00, 0.00, 0
361492, -30126.51, -31079.96, 0.00, 0.00, 0.00, 0.00, 0.00, 0.00, 0
361493, -30100.06, -31023.71, 0.00, 0.00, 0.00, 0.00, 0.00, 0.00, 0
361494, -30103.60, -31129.05, 0.00, 0.00, 0.00, 0.00, 0.00, 0.00, 0
361495, -30131.71, -31230.39, 0.00, 0.00, 0.00, 0.00, 0.00, 0.00, 0
361496, -30136.65, -31149.14, 0.00, 0.00, 0.00, 0.00, 0.00, 0.00, 0
361497, -30114.73, -31087.10, 0.00, 0.00, 0.00, 0.00, 0.00, 0.00, 0
361498, -30108.29, -31238.06, 0.00, 0.00, 0.00, 0.00, 0.00, 0.00, 0
361499, -30132.47, -31327.11, 0.00, 0.00, 0.00, 0.00, 0.00, 0.00, 0
361500, -30141.17, -31177.80, 0.00, 0.00, 0.00, 0.00, 0.00, 0.00, 0
361501, -30121.68, -31054.04, 0.00, 0.00, 0.00, 0.00, 0.00, 0.00, 0
361502, -30115.44, -31170.33, 0.00, 0.00, 0.00, 0.00, 0.00, 0.00, 0
361503, -30138.24, -31295.57, 0.00, 0.00, 0.00, 0.00, 0.00, 0.00, 0
361504, -30154.98, -31184.79, 0.00, 0.00, 0.00, 0.00, 0.00, 0.00, 0
361505, -30135.49, -31039.13, 0.00, 0.00, 0.00, 0.00, 0.00, 0.00, 0
361506, -30112.74, -31128.54, 0.00, 0.00, 0.00, 0.00, 0.00, 0.00, 0
361507, -30122.26, -31285.27, 0.00, 0.00, 0.00, 0.00, 0.00, 0.00, 0
361508, -30137.68, -31213.79, 0.00, 0.00, 0.00, 0.00, 0.00, 0.00, 0
361509, -30128.05, -31045.77, 0.00, 0.00, 0.00, 0.00, 0.00, 0.00, 0
361510, -30111.49, -31091.54, 0.00, 0.00, 0.00, 0.00, 0.00, 0.00, 0
361511, -30120.65, -31260.17, 0.00, 0.00, 0.00, 0.00, 0.00, 0.00, 0
361512, -30141.01, -31226.88, 0.00, 0.00, 0.00, 0.00, 0.00, 0.00, 0
361513, -30130.87, -31048.90, 0.00, 0.00, 0.00, 0.00, 0.00, 0.00, 0
361514, -30105.14, -31052.27, 0.00, 0.00, 0.00, 0.00, 0.00, 0.00, 0
361515, -30105.47, -31225.07, 0.00, 0.00, 0.00, 0.00, 0.00, 0.00, 0
361516, -30129.90, -31245.55, 0.00, 0.00, 0.00, 0.00, 0.00, 0.00, 0
361517, -30125.05, -31070.96, 0.00, 0.00, 0.00, 0.00, 0.00, 0.00, 0
361518, -30103.53, -31034.23, 0.00, 0.00, 0.00, 0.00, 0.00, 0.00, 0
361519, -30098.61, -31198.01, 0.00, 0.00, 0.00, 0.00, 0.00, 0.00, 0
361520, -30114.93, -31252.30, 0.00, 0.00, 0.00, 0.00, 0.00, 0.00, 0
361521, -30121.54, -31101.36, 0.00, 0.00, 0.00, 0.00, 0.00, 0.00, 0
361522, -30106.23, -31029.36, 0.00, 0.00, 0.00, 0.00, 0.00, 0.00, 0
361523, -30101.83, -31177.08, 0.00, 0.00, 0.00, 0.00, 0.00, 0.00, 0
361524, -30126.78, -31270.56, 0.00, 0.00, 0.00, 0.00, 0.00, 0.00, 0
361525, -30138.87, -31124.40, 0.00, 0.00, 0.00, 0.00, 0.00, 0.00, 0
361526, -30115.85, -30993.24, 0.00, 0.00, 0.00, 0.00, 0.00, 0.00, 0
361527, -30103.33, -31101.80, 0.00, 0.00, 0.00, 0.00, 0.00, 0.00, 0
361528, -30127.85, -31257.42, 0.00, 0.00, 0.00, 0.00, 0.00, 0.00, 0
361529, -30146.09, -31120.42, 0.00, 0.00, 0.00, 0.00, 0.00, 0.00, 0
361530, -30125.39, -30912.57, 0.00, 0.00, 0.00, 0.00, 0.00, 0.00, 0
361531, -30108.63, -31086.34, 0.00, 0.00, 0.00, 0.00, 0.00, 0.00, 0
361532, -30132.34, -31367.19, 0.00, 0.00, 0.00, 0.00, 0.00, 0.00, 0
361533, -30154.11, -31297.11, 0.00, 0.00, 0.00, 0.00, 0.00, 0.00, 0
361534, -30141.64, -31120.24, 0.00, 0.00, 0.00, 0.00, 0.00, 0.00, 0
361535, -30118.35, -31148.12, 0.00, 0.00, 0.00, 0.00, 0.00, 0.00, 0
361536, -30117.57, -31292.58, 0.00, 0.00, 0.00, 0.00, 0.00, 0.00, 0
361537, -30133.50, -31253.82, 0.00, 0.00, 0.00, 0.00, 0.00, 0.00, 0
361538, -30125.35, -31068.41, 0.00, 0.00, 0.00, 0.00, 0.00, 0.00, 0
361539, -30101.92, -31056.29, 0.00, 0.00, 0.00, 0.00, 0.00, 0.00, 0
361540, -30104.58, -31238.95, 0.00, 0.00, 0.00, 0.00, 0.00, 0.00, 0
361541, -30125.63, -31263.76, 0.00, 0.00, 0.00, 0.00, 0.00, 0.00, 0
361542, -30128.41, -31083.43, 0.00, 0.00, 0.00, 0.00, 0.00, 0.00, 0
361543, -30106.81, -31028.51, 0.00, 0.00, 0.00, 0.00, 0.00, 0.00, 0
361544, -30101.70, -31190.99, 0.00, 0.00, 0.00, 0.00, 0.00, 0.00, 0
361545, -30129.35, -31265.98, 0.00, 0.00, 0.00, 0.00, 0.00, 0.00, 0
361546, -30134.33, -31115.66, 0.00, 0.00, 0.00, 0.00, 0.00, 0.00, 0
361547, -30100.45, -31019.12, 0.00, 0.00, 0.00, 0.00, 0.00, 0.00, 0
361548, -30086.54, -31130.88, 0.00, 0.00, 0.00, 0.00, 0.00, 0.00, 0
361549, -30102.70, -31197.20, 0.00, 0.00, 0.00, 0.00, 0.00, 0.00, 0
361550, -30124.38, -31105.04, 0.00, 0.00, 0.00, 0.00, 0.00, 0.00, 0
361551, -30115.44, -31035.11, 0.00, 0.00, 0.00, 0.00, 0.00, 0.00, 0
361552, -30097.76, -31155.78, 0.00, 0.00, 0.00, 0.00, 0.00, 0.00, 0
361553, -30112.96, -31289.96, 0.00, 0.00, 0.00, 0.00, 0.00, 0.00, 0
361554, -30132.56, -31199.73, 0.00, 0.00, 0.00, 0.00, 0.00, 0.00, 0
361555, -30120.88, -31042.32, 0.00, 0.00, 0.00, 0.00, 0.00, 0.00, 0
361556, -30100.24, -31120.27, 0.00, 0.00, 0.00, 0.00, 0.00, 0.00, 0
361557, -30103.24, -31283.46, 0.00, 0.00, 0.00, 0.00, 0.00, 0.00, 0
361558, -30121.93, -31223.75, 0.00, 0.00, 0.00, 0.00, 0.00, 0.00, 0
361559, -30117.57, -31046.33, 0.00, 0.00, 0.00, 0.00, 0.00, 0.00, 0
361560, -30091.08, -31066.71, 0.00, 0.00, 0.00, 0.00, 0.00, 0.00, 0
361561, -30088.84, -31227.20, 0.00, 0.00, 0.00, 0.00, 0.00, 0.00, 0
361562, -30110.50, -31216.00, 0.00, 0.00, 0.00, 0.00, 0.00, 0.00, 0
361563, -30112.45, -31054.91, 0.00, 0.00, 0.00, 0.00, 0.00, 0.00, 0
361564, -30088.84, -31017.89, 0.00, 0.00, 0.00, 0.00, 0.00, 0.00, 0
361565, -30086.16, -31186.23, 0.00, 0.00, 0.00, 0.00, 0.00, 0.00, 0
361566, -30111.98, -31258.94, 0.00, 0.00, 0.00, 0.00, 0.00, 0.00, 0
361567, -30119.58, -31084.93, 0.00, 0.00, 0.00, 0.00, 0.00, 0.00, 0
361568, -30104.27, -31017.43, 0.00, 0.00, 0.00, 0.00, 0.00, 0.00, 0
361569, -30095.17, -31167.38, 0.00, 0.00, 0.00, 0.00, 0.00, 0.00, 0
361570, -30117.61, -31221.14, 0.00, 0.00, 0.00, 0.00, 0.00, 0.00, 0
361571, -30132.01, -31084.55, 0.00, 0.00, 0.00, 0.00, 0.00, 0.00, 0
361572, -30119.82, -30992.75, 0.00, 0.00, 0.00, 0.00, 0.00, 0.00, 0
361573, -30099.39, -31108.02, 0.00, 0.00, 0.00, 0.00, 0.00, 0.00, 0
361574, -30112.13, -31246.66, 0.00, 0.00, 0.00, 0.00, 0.00, 0.00, 0
361575, -30129.95, -31165.17, 0.00, 0.00, 0.00, 0.00, 0.00, 0.00, 0
361576, -30124.25, -31068.21, 0.00, 0.00, 0.00, 0.00, 0.00, 0.00, 0
361577, -30107.29, -31183.39, 0.00, 0.00, 0.00, 0.00, 0.00, 0.00, 0
361578, -30114.64, -31309.79, 0.00, 0.00, 0.00, 0.00, 0.00, 0.00, 0
361579, -30131.96, -31209.99, 0.00, 0.00, 0.00, 0.00, 0.00, 0.00, 0
361580, -30124.63, -31062.11, 0.00, 0.00, 0.00, 0.00, 0.00, 0.00, 0
361581, -30102.48, -31130.37, 0.00, 0.00, 0.00, 0.00, 0.00, 0.00, 0
361582, -30103.26, -31280.26, 0.00, 0.00, 0.00, 0.00, 0.00, 0.00, 0
361583, -30123.31, -31225.56, 0.00, 0.00, 0.00, 0.00, 0.00, 0.00, 0
361584, -30120.79, -31051.85, 0.00, 0.00, 0.00, 0.00, 0.00, 0.00, 0
361585, -30102.81, -31070.44, 0.00, 0.00, 0.00, 0.00, 0.00, 0.00, 0
361586, -30104.09, -31237.25, 0.00, 0.00, 0.00, 0.00, 0.00, 0.00, 0
361587, -30128.07, -31233.28, 0.00, 0.00, 0.00, 0.00, 0.00, 0.00, 0
361588, -30129.10, -31064.99, 0.00, 0.00, 0.00, 0.00, 0.00, 0.00, 0
361589, -30107.11, -31044.94, 0.00, 0.00, 0.00, 0.00, 0.00, 0.00, 0
361590, -30099.44, -31215.35, 0.00, 0.00, 0.00, 0.00, 0.00, 0.00, 0
361591, -30118.55, -31260.84, 0.00, 0.00, 0.00, 0.00, 0.00, 0.00, 0
361592, -30129.19, -31097.89, 0.00, 0.00, 0.00, 0.00, 0.00, 0.00, 0
361593, -30111.62, -31037.30, 0.00, 0.00, 0.00, 0.00, 0.00, 0.00, 0
361594, -30104.96, -31193.74, 0.00, 0.00, 0.00, 0.00, 0.00, 0.00, 0
361595, -30124.83, -31275.59, 0.00, 0.00, 0.00, 0.00, 0.00, 0.00, 0
361596, -30135.87, -31125.00, 0.00, 0.00, 0.00, 0.00, 0.00, 0.00, 0
361597, -30116.67, -31030.81, 0.00, 0.00, 0.00, 0.00, 0.00, 0.00, 0
361598, -30101.03, -31160.72, 0.00, 0.00, 0.00, 0.00, 0.00, 0.00, 0
361599, -30118.64, -31272.39, 0.00, 0.00, 0.00, 0.00, 0.00, 0.00, 0
361600, -30136.95, -31143.51, 0.00, 0.00, 0.00, 0.00, 0.00, 0.00, 0
361601, -30124.25, -31010.16, 0.00, 0.00, 0.00, 0.00, 0.00, 0.00, 0
361602, -30105.79, -31142.08, 0.00, 0.00, 0.00, 0.00, 0.00, 0.00, 0
361603, -30112.65, -31294.70, 0.00, 0.00, 0.00, 0.00, 0.00, 0.00, 0
361604, -30127.38, -31161.48, 0.00, 0.00, 0.00, 0.00, 0.00, 0.00, 0
361605, -30117.39, -31014.16, 0.00, 0.00, 0.00, 0.00, 0.00, 0.00, 0
361606, -30100.22, -31118.63, 0.00, 0.00, 0.00, 0.00, 0.00, 0.00, 0
361607, -30105.12, -31258.78, 0.00, 0.00, 0.00, 0.00, 0.00, 0.00, 0
361608, -30131.38, -31218.88, 0.00, 0.00, 0.00, 0.00, 0.00, 0.00, 0
361609, -30137.79, -31088.91, 0.00, 0.00, 0.00, 0.00, 0.00, 0.00, 0
361610, -30112.96, -31108.84, 0.00, 0.00, 0.00, 0.00, 0.00, 0.00, 0
361611, -30109.36, -31252.01, 0.00, 0.00, 0.00, 0.00, 0.00, 0.00, 0
361612, -30130.46, -31258.11, 0.00, 0.00, 0.00, 0.00, 0.00, 0.00, 0
361613, -30139.54, -31110.23, 0.00, 0.00, 0.00, 0.00, 0.00, 0.00, 0
361614, -30122.19, -31085.51, 0.00, 0.00, 0.00, 0.00, 0.00, 0.00, 0
361615, -30110.73, -31232.85, 0.00, 0.00, 0.00, 0.00, 0.00, 0.00, 0
361616, -30129.30, -31280.64, 0.00, 0.00, 0.00, 0.00, 0.00, 0.00, 0
361617, -30139.81, -31119.62, 0.00, 0.00, 0.00, 0.00, 0.00, 0.00, 0
361618, -30120.54, -31026.88, 0.00, 0.00, 0.00, 0.00, 0.00, 0.00, 0
361619, -30107.71, -31191.77, 0.00, 0.00, 0.00, 0.00, 0.00, 0.00, 0
361620, -30119.56, -31320.85, 0.00, 0.00, 0.00, 0.00, 0.00, 0.00, 0
361621, -30118.66, -31164.79, 0.00, 0.00, 0.00, 0.00, 0.00, 0.00, 0
361622, -30088.20, -31017.76, 0.00, 0.00, 0.00, 0.00, 0.00, 0.00, 0
361623, -30073.96, -31136.45, 0.00, 0.00, 0.00, 0.00, 0.00, 0.00, 0
361624, -30088.29, -31276.86, 0.00, 0.00, 0.00, 0.00, 0.00, 0.00, 0
361625, -30107.84, -31168.81, 0.00, 0.00, 0.00, 0.00, 0.00, 0.00, 0
361626, -30099.64, -31024.06, 0.00, 0.00, 0.00, 0.00, 0.00, 0.00, 0
361627, -30080.73, -31109.54, 0.00, 0.00, 0.00, 0.00, 0.00, 0.00, 0
361628, -30088.49, -31247.60, 0.00, 0.00, 0.00, 0.00, 0.00, 0.00, 0
361629, -30109.05, -31165.97, 0.00, 0.00, 0.00, 0.00, 0.00, 0.00, 0
361630, -30106.30, -31014.65, 0.00, 0.00, 0.00, 0.00, 0.00, 0.00, 0
361631, -30087.17, -31086.00, 0.00, 0.00, 0.00, 0.00, 0.00, 0.00, 0
361632, -30086.32, -31271.34, 0.00, 0.00, 0.00, 0.00, 0.00, 0.00, 0
361633, -30099.39, -31243.47, 0.00, 0.00, 0.00, 0.00, 0.00, 0.00, 0
361634, -30097.12, -31071.58, 0.00, 0.00, 0.00, 0.00, 0.00, 0.00, 0
361635, -30074.83, -31065.95, 0.00, 0.00, 0.00, 0.00, 0.00, 0.00, 0
361636, -30069.02, -31229.07, 0.00, 0.00, 0.00, 0.00, 0.00, 0.00, 0
361637, -30086.30, -31231.22, 0.00, 0.00, 0.00, 0.00, 0.00, 0.00, 0
361638, -30097.54, -31056.88, 0.00, 0.00, 0.00, 0.00, 0.00, 0.00, 0
361639, -30079.90, -31015.17, 0.00, 0.00, 0.00, 0.00, 0.00, 0.00, 0
361640, -30075.39, -31196.33, 0.00, 0.00, 0.00, 0.00, 0.00, 0.00, 0
361641, -30097.49, -31261.62, 0.00, 0.00, 0.00, 0.00, 0.00, 0.00, 0
361642, -30110.55, -31092.17, 0.00, 0.00, 0.00, 0.00, 0.00, 0.00, 0
361643, -30094.43, -30994.13, 0.00, 0.00, 0.00, 0.00, 0.00, 0.00, 0
361644, -30078.32, -31135.78, 0.00, 0.00, 0.00, 0.00, 0.00, 0.00, 0
361645, -30095.37, -31262.62, 0.00, 0.00, 0.00, 0.00, 0.00, 0.00, 0
361646, -30115.60, -31135.85, 0.00, 0.00, 0.00, 0.00, 0.00, 0.00, 0
361647, -30106.84, -31012.33, 0.00, 0.00, 0.00, 0.00, 0.00, 0.00, 0
361648, -30089.16, -31133.16, 0.00, 0.00, 0.00, 0.00, 0.00, 0.00, 0
361649, -30094.01, -31253.35, 0.00, 0.00, 0.00, 0.00, 0.00, 0.00, 0
361650, -30114.53, -31147.71, 0.00, 0.00, 0.00, 0.00, 0.00, 0.00, 0
361651, -30105.61, -31001.51, 0.00, 0.00, 0.00, 0.00, 0.00, 0.00, 0
361652, -30081.96, -31077.62, 0.00, 0.00, 0.00, 0.00, 0.00, 0.00, 0
361653, -30090.25, -31242.89, 0.00, 0.00, 0.00, 0.00, 0.00, 0.00, 0
361654, -30112.22, -31190.12, 0.00, 0.00, 0.00, 0.00, 0.00, 0.00, 0
361655, -30109.16, -31025.94, 0.00, 0.00, 0.00, 0.00, 0.00, 0.00, 0
361656, -30088.87, -31065.06, 0.00, 0.00, 0.00, 0.00, 0.00, 0.00, 0
361657, -30088.96, -31223.98, 0.00, 0.00, 0.00, 0.00, 0.00, 0.00, 0
361658, -30113.90, -31226.03, 0.00, 0.00, 0.00, 0.00, 0.00, 0.00, 0
361659, -30122.86, -31073.04, 0.00, 0.00, 0.00, 0.00, 0.00, 0.00, 0
361660, -30100.00, -31065.50, 0.00, 0.00, 0.00, 0.00, 0.00, 0.00, 0
361661, -30085.27, -31222.93, 0.00, 0.00, 0.00, 0.00, 0.00, 0.00, 0
361662, -30101.41, -31238.30, 0.00, 0.00, 0.00, 0.00, 0.00, 0.00, 0
361663, -30107.37, -31067.27, 0.00, 0.00, 0.00, 0.00, 0.00, 0.00, 0
361664, -30085.40, -31021.94, 0.00, 0.00, 0.00, 0.00, 0.00, 0.00, 0
361665, -30074.40, -31183.48, 0.00, 0.00, 0.00, 0.00, 0.00, 0.00, 0
361666, -30096.15, -31255.20, 0.00, 0.00, 0.00, 0.00, 0.00, 0.00, 0
361667, -30113.21, -31101.76, 0.00, 0.00, 0.00, 0.00, 0.00, 0.00, 0
361668, -30104.27, -31009.15, 0.00, 0.00, 0.00, 0.00, 0.00, 0.00, 0
361669, -30092.58, -31151.85, 0.00, 0.00, 0.00, 0.00, 0.00, 0.00, 0
361670, -30104.94, -31258.47, 0.00, 0.00, 0.00, 0.00, 0.00, 0.00, 0
361671, -30116.65, -31128.22, 0.00, 0.00, 0.00, 0.00, 0.00, 0.00, 0
361672, -30099.39, -30999.21, 0.00, 0.00, 0.00, 0.00, 0.00, 0.00, 0
361673, -30078.41, -31108.55, 0.00, 0.00, 0.00, 0.00, 0.00, 0.00, 0
361674, -30083.64, -31239.02, 0.00, 0.00, 0.00, 0.00, 0.00, 0.00, 0
361675, -30102.32, -31144.72, 0.00, 0.00, 0.00, 0.00, 0.00, 0.00, 0
361676, -30101.70, -31011.23, 0.00, 0.00, 0.00, 0.00, 0.00, 0.00, 0
361677, -30084.33, -31100.48, 0.00, 0.00, 0.00, 0.00, 0.00, 0.00, 0
361678, -30088.29, -31244.77, 0.00, 0.00, 0.00, 0.00, 0.00, 0.00, 0
361679, -30107.78, -31178.40, 0.00, 0.00, 0.00, 0.00, 0.00, 0.00, 0
361680, -30107.93, -31021.94, 0.00, 0.00, 0.00, 0.00, 0.00, 0.00, 0
361681, -30092.78, -31074.11, 0.00, 0.00, 0.00, 0.00, 0.00, 0.00, 0
361682, -30094.37, -31237.37, 0.00, 0.00, 0.00, 0.00, 0.00, 0.00, 0
361683, -30116.09, -31205.74, 0.00, 0.00, 0.00, 0.00, 0.00, 0.00, 0
361684, -30118.55, -31050.06, 0.00, 0.00, 0.00, 0.00, 0.00, 0.00, 0
361685, -30092.82, -31075.65, 0.00, 0.00, 0.00, 0.00, 0.00, 0.00, 0
361686, -30087.26, -31260.48, 0.00, 0.00, 0.00, 0.00, 0.00, 0.00, 0
361687, -30109.27, -31280.53, 0.00, 0.00, 0.00, 0.00, 0.00, 0.00, 0
361688, -30117.01, -31092.59, 0.00, 0.00, 0.00, 0.00, 0.00, 0.00, 0
361689, -30095.15, -31035.33, 0.00, 0.00, 0.00, 0.00, 0.00, 0.00, 0
361690, -30085.38, -31199.73, 0.00, 0.00, 0.00, 0.00, 0.00, 0.00, 0
361691, -30104.76, -31279.12, 0.00, 0.00, 0.00, 0.00, 0.00, 0.00, 0
361692, -30114.30, -31123.44, 0.00, 0.00, 0.00, 0.00, 0.00, 0.00, 0
361693, -30097.32, -31010.61, 0.00, 0.00, 0.00, 0.00, 0.00, 0.00, 0
361694, -30086.16, -31141.54, 0.00, 0.00, 0.00, 0.00, 0.00, 0.00, 0
361695, -30099.55, -31257.51, 0.00, 0.00, 0.00, 0.00, 0.00, 0.00, 0
361696, -30114.88, -31148.65, 0.00, 0.00, 0.00, 0.00, 0.00, 0.00, 0
361697, -30102.26, -31021.31, 0.00, 0.00, 0.00, 0.00, 0.00, 0.00, 0
361698, -30084.40, -31123.51, 0.00, 0.00, 0.00, 0.00, 0.00, 0.00, 0
361699, -30096.22, -31274.09, 0.00, 0.00, 0.00, 0.00, 0.00, 0.00, 0
361700, -30119.89, -31181.29, 0.00, 0.00, 0.00, 0.00, 0.00, 0.00, 0
361701, -30116.65, -31015.75, 0.00, 0.00, 0.00, 0.00, 0.00, 0.00, 0
361702, -30096.89, -31086.16, 0.00, 0.00, 0.00, 0.00, 0.00, 0.00, 0
361703, -30096.98, -31253.93, 0.00, 0.00, 0.00, 0.00, 0.00, 0.00, 0
361704, -30119.24, -31205.27, 0.00, 0.00, 0.00, 0.00, 0.00, 0.00, 0
361705, -30115.60, -31025.76, 0.00, 0.00, 0.00, 0.00, 0.00, 0.00, 0
361706, -30087.50, -31030.12, 0.00, 0.00, 0.00, 0.00, 0.00, 0.00, 0
361707, -30083.70, -31221.21, 0.00, 0.00, 0.00, 0.00, 0.00, 0.00, 0
361708, -30114.50, -31245.44, 0.00, 0.00, 0.00, 0.00, 0.00, 0.00, 0
361709, -30124.81, -31080.01, 0.00, 0.00, 0.00, 0.00, 0.00, 0.00, 0
361710, -30100.89, -31064.10, 0.00, 0.00, 0.00, 0.00, 0.00, 0.00, 0
361711, -30085.13, -31215.02, 0.00, 0.00, 0.00, 0.00, 0.00, 0.00, 0
361712, -30100.96, -31247.22, 0.00, 0.00, 0.00, 0.00, 0.00, 0.00, 0
361713, -30110.62, -31082.71, 0.00, 0.00, 0.00, 0.00, 0.00, 0.00, 0
361714, -30088.42, -31025.76, 0.00, 0.00, 0.00, 0.00, 0.00, 0.00, 0
361715, -30079.61, -31182.27, 0.00, 0.00, 0.00, 0.00, 0.00, 0.00, 0
361716, -30097.20, -31267.83, 0.00, 0.00, 0.00, 0.00, 0.00, 0.00, 0
361717, -30112.31, -31117.14, 0.00, 0.00, 0.00, 0.00, 0.00, 0.00, 0
361718, -30095.33, -31026.52, 0.00, 0.00, 0.00, 0.00, 0.00, 0.00, 0
361719, -30074.99, -31146.22, 0.00, 0.00, 0.00, 0.00, 0.00, 0.00, 0
361720, -30087.62, -31236.70, 0.00, 0.00, 0.00, 0.00, 0.00, 0.00, 0
361721, -30105.79, -31123.28, 0.00, 0.00, 0.00, 0.00, 0.00, 0.00, 0
361722, -30097.32, -31013.29, 0.00, 0.00, 0.00, 0.00, 0.00, 0.00, 0
361723, -30078.70, -31124.11, 0.00, 0.00, 0.00, 0.00, 0.00, 0.00, 0
361724, -30087.66, -31266.63, 0.00, 0.00, 0.00, 0.00, 0.00, 0.00, 0
361725, -30113.19, -31194.85, 0.00, 0.00, 0.00, 0.00, 0.00, 0.00, 0
361726, -30108.04, -31030.19, 0.00, 0.00, 0.00, 0.00, 0.00, 0.00, 0
361727, -30082.52, -31084.06, 0.00, 0.00, 0.00, 0.00, 0.00, 0.00, 0
361728, -30085.07, -31245.84, 0.00, 0.00, 0.00, 0.00, 0.00, 0.00, 0
361729, -30107.49, -31204.76, 0.00, 0.00, 0.00, 0.00, 0.00, 0.00, 0
361730, -30110.99, -31043.67, 0.00, 0.00, 0.00, 0.00, 0.00, 0.00, 0
361731, -30092.13, -31068.48, 0.00, 0.00, 0.00, 0.00, 0.00, 0.00, 0
361732, -30089.78, -31236.76, 0.00, 0.00, 0.00, 0.00, 0.00, 0.00, 0
361733, -30105.79, -31235.69, 0.00, 0.00, 0.00, 0.00, 0.00, 0.00, 0
361734, -30111.51, -31059.27, 0.00, 0.00, 0.00, 0.00, 0.00, 0.00, 0
361735, -30092.80, -31030.90, 0.00, 0.00, 0.00, 0.00, 0.00, 0.00, 0
361736, -30082.88, -31203.57, 0.00, 0.00, 0.00, 0.00, 0.00, 0.00, 0
361737, -30096.73, -31255.47, 0.00, 0.00, 0.00, 0.00, 0.00, 0.00, 0
361738, -30105.92, -31088.15, 0.00, 0.00, 0.00, 0.00, 0.00, 0.00, 0
361739, -30092.22, -31007.48, 0.00, 0.00, 0.00, 0.00, 0.00, 0.00, 0
361740, -30077.31, -31170.11, 0.00, 0.00, 0.00, 0.00, 0.00, 0.00, 0
361741, -30092.24, -31266.20, 0.00, 0.00, 0.00, 0.00, 0.00, 0.00, 0
361742, -30108.00, -31120.40, 0.00, 0.00, 0.00, 0.00, 0.00, 0.00, 0
361743, -30091.30, -31015.88, 0.00, 0.00, 0.00, 0.00, 0.00, 0.00, 0
361744, -30075.03, -31136.02, 0.00, 0.00, 0.00, 0.00, 0.00, 0.00, 0
361745, -30089.49, -31251.22, 0.00, 0.00, 0.00, 0.00, 0.00, 0.00, 0
361746, -30100.29, -31133.12, 0.00, 0.00, 0.00, 0.00, 0.00, 0.00, 0
361747, -30091.10, -30994.43, 0.00, 0.00, 0.00, 0.00, 0.00, 0.00, 0
361748, -30068.71, -31104.08, 0.00, 0.00, 0.00, 0.00, 0.00, 0.00, 0
361749, -30074.54, -31263.32, 0.00, 0.00, 0.00, 0.00, 0.00, 0.00, 0
361750, -30095.53, -31188.71, 0.00, 0.00, 0.00, 0.00, 0.00, 0.00, 0
361751, -30092.09, -31015.41, 0.00, 0.00, 0.00, 0.00, 0.00, 0.00, 0
361752, -30075.08, -31064.99, 0.00, 0.00, 0.00, 0.00, 0.00, 0.00, 0
361753, -30078.23, -31229.52, 0.00, 0.00, 0.00, 0.00, 0.00, 0.00, 0
361754, -30097.99, -31193.33, 0.00, 0.00, 0.00, 0.00, 0.00, 0.00, 0
361755, -30094.86, -31020.44, 0.00, 0.00, 0.00, 0.00, 0.00, 0.00, 0
361756, -30072.19, -31042.88, 0.00, 0.00, 0.00, 0.00, 0.00, 0.00, 0
361757, -30074.18, -31233.25, 0.00, 0.00, 0.00, 0.00, 0.00, 0.00, 0
361758, -30097.27, -31249.01, 0.00, 0.00, 0.00, 0.00, 0.00, 0.00, 0
361759, -30098.72, -31067.05, 0.00, 0.00, 0.00, 0.00, 0.00, 0.00, 0
361760, -30080.62, -31024.62, 0.00, 0.00, 0.00, 0.00, 0.00, 0.00, 0
361761, -30074.56, -31184.24, 0.00, 0.00, 0.00, 0.00, 0.00, 0.00, 0
361762, -30090.57, -31239.94, 0.00, 0.00, 0.00, 0.00, 0.00, 0.00, 0
361763, -30106.84, -31091.70, 0.00, 0.00, 0.00, 0.00, 0.00, 0.00, 0
361764, -30092.58, -31010.29, 0.00, 0.00, 0.00, 0.00, 0.00, 0.00, 0
361765, -30078.38, -31145.72, 0.00, 0.00, 0.00, 0.00, 0.00, 0.00, 0
361766, -30091.86, -31240.79, 0.00, 0.00, 0.00, 0.00, 0.00, 0.00, 0
361767, -30106.79, -31127.55, 0.00, 0.00, 0.00, 0.00, 0.00, 0.00, 0
361768, -30089.02, -31019.35, 0.00, 0.00, 0.00, 0.00, 0.00, 0.00, 0
361769, -30072.10, -31136.09, 0.00, 0.00, 0.00, 0.00, 0.00, 0.00, 0
361770, -30081.67, -31267.23, 0.00, 0.00, 0.00, 0.00, 0.00, 0.00, 0
361771, -30100.13, -31166.78, 0.00, 0.00, 0.00, 0.00, 0.00, 0.00, 0
361772, -30092.26, -31015.88, 0.00, 0.00, 0.00, 0.00, 0.00, 0.00, 0
361773, -30069.09, -31090.78, 0.00, 0.00, 0.00, 0.00, 0.00, 0.00, 0
361774, -30071.79, -31237.25, 0.00, 0.00, 0.00, 0.00, 0.00, 0.00, 0
361775, -30093.05, -31180.24, 0.00, 0.00, 0.00, 0.00, 0.00, 0.00, 0
361776, -30091.75, -31023.51, 0.00, 0.00, 0.00, 0.00, 0.00, 0.00, 0
361777, -30072.68, -31069.55, 0.00, 0.00, 0.00, 0.00, 0.00, 0.00, 0
361778, -30076.71, -31240.79, 0.00, 0.00, 0.00, 0.00, 0.00, 0.00, 0
361779, -30094.68, -31221.79, 0.00, 0.00, 0.00, 0.00, 0.00, 0.00, 0
361780, -30100.51, -31041.34, 0.00, 0.00, 0.00, 0.00, 0.00, 0.00, 0
361781, -30079.14, -31035.89, 0.00, 0.00, 0.00, 0.00, 0.00, 0.00, 0
361782, -30072.48, -31193.91, 0.00, 0.00, 0.00, 0.00, 0.00, 0.00, 0
361783, -30092.62, -31218.21, 0.00, 0.00, 0.00, 0.00, 0.00, 0.00, 0
361784, -30101.41, -31063.20, 0.00, 0.00, 0.00, 0.00, 0.00, 0.00, 0
361785, -30080.51, -31009.20, 0.00, 0.00, 0.00, 0.00, 0.00, 0.00, 0
361786, -30067.68, -31182.45, 0.00, 0.00, 0.00, 0.00, 0.00, 0.00, 0
361787, -30089.89, -31265.42, 0.00, 0.00, 0.00, 0.00, 0.00, 0.00, 0
361788, -30100.69, -31110.52, 0.00, 0.00, 0.00, 0.00, 0.00, 0.00, 0
361789, -30079.72, -31020.67, 0.00, 0.00, 0.00, 0.00, 0.00, 0.00, 0
361790, -30065.82, -31157.41, 0.00, 0.00, 0.00, 0.00, 0.00, 0.00, 0
361791, -30085.83, -31255.27, 0.00, 0.00, 0.00, 0.00, 0.00, 0.00, 0
361792, -30105.09, -31121.25, 0.00, 0.00, 0.00, 0.00, 0.00, 0.00, 0
361793, -30095.33, -31011.72, 0.00, 0.00, 0.00, 0.00, 0.00, 0.00, 0
361794, -30077.80, -31129.99, 0.00, 0.00, 0.00, 0.00, 0.00, 0.00, 0
361795, -30087.17, -31259.25, 0.00, 0.00, 0.00, 0.00, 0.00, 0.00, 0
361796, -30105.81, -31158.15, 0.00, 0.00, 0.00, 0.00, 0.00, 0.00, 0
361797, -30094.54, -31011.35, 0.00, 0.00, 0.00, 0.00, 0.00, 0.00, 0
361798, -30067.88, -31087.95, 0.00, 0.00, 0.00, 0.00, 0.00, 0.00, 0
361799, -30073.62, -31237.84, 0.00, 0.00, 0.00, 0.00, 0.00, 0.00, 0
361800, -30100.04, -31184.48, 0.00, 0.00, 0.00, 0.00, 0.00, 0.00, 0
361801, -30101.03, -31032.04, 0.00, 0.00, 0.00, 0.00, 0.00, 0.00, 0
361802, -30079.01, -31069.97, 0.00, 0.00, 0.00, 0.00, 0.00, 0.00, 0
361803, -30076.84, -31236.83, 0.00, 0.00, 0.00, 0.00, 0.00, 0.00, 0
361804, -30095.88, -31219.60, 0.00, 0.00, 0.00, 0.00, 0.00, 0.00, 0
361805, -30100.58, -31044.94, 0.00, 0.00, 0.00, 0.00, 0.00, 0.00, 0
361806, -30080.33, -31038.50, 0.00, 0.00, 0.00, 0.00, 0.00, 0.00, 0
361807, -30070.72, -31201.45, 0.00, 0.00, 0.00, 0.00, 0.00, 0.00, 0
361808, -30086.41, -31227.38, 0.00, 0.00, 0.00, 0.00, 0.00, 0.00, 0
361809, -30093.70, -31070.55, 0.00, 0.00, 0.00, 0.00, 0.00, 0.00, 0
361810, -30071.72, -31020.78, 0.00, 0.00, 0.00, 0.00, 0.00, 0.00, 0
361811, -30056.41, -31173.82, 0.00, 0.00, 0.00, 0.00, 0.00, 0.00, 0
361812, -30075.21, -31252.95, 0.00, 0.00, 0.00, 0.00, 0.00, 0.00, 0
361813, -30095.19, -31120.49, 0.00, 0.00, 0.00, 0.00, 0.00, 0.00, 0
361814, -30080.78, -31037.10, 0.00, 0.00, 0.00, 0.00, 0.00, 0.00, 0
361815, -30063.12, -31163.74, 0.00, 0.00, 0.00, 0.00, 0.00, 0.00, 0
361816, -30074.20, -31263.67, 0.00, 0.00, 0.00, 0.00, 0.00, 0.00, 0
361817, -30091.95, -31131.93, 0.00, 0.00, 0.00, 0.00, 0.00, 0.00, 0
361818, -30086.18, -31007.72, 0.00, 0.00, 0.00, 0.00, 0.00, 0.00, 0
361819, -30062.92, -31120.49, 0.00, 0.00, 0.00, 0.00, 0.00, 0.00, 0
361820, -30068.39, -31258.00, 0.00, 0.00, 0.00, 0.00, 0.00, 0.00, 0
361821, -30093.27, -31173.11, 0.00, 0.00, 0.00, 0.00, 0.00, 0.00, 0
361822, -30090.61, -31018.43, 0.00, 0.00, 0.00, 0.00, 0.00, 0.00, 0
361823, -30069.89, -31067.00, 0.00, 0.00, 0.00, 0.00, 0.00, 0.00, 0
361824, -30074.20, -31229.90, 0.00, 0.00, 0.00, 0.00, 0.00, 0.00, 0
361825, -30093.40, -31190.83, 0.00, 0.00, 0.00, 0.00, 0.00, 0.00, 0
361826, -30090.16, -31030.72, 0.00, 0.00, 0.00, 0.00, 0.00, 0.00, 0
361827, -30065.89, -31059.65, 0.00, 0.00, 0.00, 0.00, 0.00, 0.00, 0
361828, -30062.02, -31227.49, 0.00, 0.00, 0.00, 0.00, 0.00, 0.00, 0
361829, -30083.57, -31226.86, 0.00, 0.00, 0.00, 0.00, 0.00, 0.00, 0
361830, -30088.80, -31050.84, 0.00, 0.00, 0.00, 0.00, 0.00, 0.00, 0
361831, -30066.96, -31031.31, 0.00, 0.00, 0.00, 0.00, 0.00, 0.00, 0
361832, -30061.15, -31196.82, 0.00, 0.00, 0.00, 0.00, 0.00, 0.00, 0
361833, -30080.33, -31236.36, 0.00, 0.00, 0.00, 0.00, 0.00, 0.00, 0
361834, -30089.72, -31084.39, 0.00, 0.00, 0.00, 0.00, 0.00, 0.00, 0
361835, -30068.71, -31010.34, 0.00, 0.00, 0.00, 0.00, 0.00, 0.00, 0
361836, -30053.35, -31151.74, 0.00, 0.00, 0.00, 0.00, 0.00, 0.00, 0
361837, -30074.58, -31244.81, 0.00, 0.00, 0.00, 0.00, 0.00, 0.00, 0
361838, -30090.95, -31104.40, 0.00, 0.00, 0.00, 0.00, 0.00, 0.00, 0
361839, -30077.98, -31002.20, 0.00, 0.00, 0.00, 0.00, 0.00, 0.00, 0
361840, -30064.28, -31134.46, 0.00, 0.00, 0.00, 0.00, 0.00, 0.00, 0
361841, -30077.78, -31253.37, 0.00, 0.00, 0.00, 0.00, 0.00, 0.00, 0
361842, -30090.41, -31140.27, 0.00, 0.00, 0.00, 0.00, 0.00, 0.00, 0
361843, -30078.59, -30993.35, 0.00, 0.00, 0.00, 0.00, 0.00, 0.00, 0
361844, -30058.13, -31094.29, 0.00, 0.00, 0.00, 0.00, 0.00, 0.00, 0
361845, -30063.10, -31251.80, 0.00, 0.00, 0.00, 0.00, 0.00, 0.00, 0
361846, -30083.37, -31180.84, 0.00, 0.00, 0.00, 0.00, 0.00, 0.00, 0
361847, -30082.14, -31020.80, 0.00, 0.00, 0.00, 0.00, 0.00, 0.00, 0
361848, -30063.34, -31076.37, 0.00, 0.00, 0.00, 0.00, 0.00, 0.00, 0
361849, -30063.74, -31240.90, 0.00, 0.00, 0.00, 0.00, 0.00, 0.00, 0
361850, -30086.30, -31203.17, 0.00, 0.00, 0.00, 0.00, 0.00, 0.00, 0
361851, -30088.71, -31033.65, 0.00, 0.00, 0.00, 0.00, 0.00, 0.00, 0
361852, -30065.33, -31046.62, 0.00, 0.00, 0.00, 0.00, 0.00, 0.00, 0
361853, -30057.73, -31215.24, 0.00, 0.00, 0.00, 0.00, 0.00, 0.00, 0
361854, -30079.41, -31222.03, 0.00, 0.00, 0.00, 0.00, 0.00, 0.00, 0
361855, -30085.04, -31047.13, 0.00, 0.00, 0.00, 0.00, 0.00, 0.00, 0
361856, -30063.47, -31019.39, 0.00, 0.00, 0.00, 0.00, 0.00, 0.00, 0
361857, -30054.54, -31189.27, 0.00, 0.00, 0.00, 0.00, 0.00, 0.00, 0
361858, -30076.44, -31235.47, 0.00, 0.00, 0.00, 0.00, 0.00, 0.00, 0
361859, -30088.29, -31069.79, 0.00, 0.00, 0.00, 0.00, 0.00, 0.00, 0
361860, -30072.86, -30994.47, 0.00, 0.00, 0.00, 0.00, 0.00, 0.00, 0
361861, -30058.65, -31138.42, 0.00, 0.00, 0.00, 0.00, 0.00, 0.00, 0
361862, -30074.70, -31233.90, 0.00, 0.00, 0.00, 0.00, 0.00, 0.00, 0
361863, -30087.48, -31108.17, 0.00, 0.00, 0.00, 0.00, 0.00, 0.00, 0
361864, -30062.18, -30995.54, 0.00, 0.00, 0.00, 0.00, 0.00, 0.00, 0
361865, -30041.68, -31123.28, 0.00, 0.00, 0.00, 0.00, 0.00, 0.00, 0
361866, -30054.22, -31244.56, 0.00, 0.00, 0.00, 0.00, 0.00, 0.00, 0
361867, -30071.95, -31121.54, 0.00, 0.00, 0.00, 0.00, 0.00, 0.00, 0
361868, -30065.64, -30980.41, 0.00, 0.00, 0.00, 0.00, 0.00, 0.00, 0
361869, -30045.93, -31078.96, 0.00, 0.00, 0.00, 0.00, 0.00, 0.00, 0
361870, -30053.66, -31225.63, 0.00, 0.00, 0.00, 0.00, 0.00, 0.00, 0
361871, -30080.60, -31151.83, 0.00, 0.00, 0.00, 0.00, 0.00, 0.00, 0
361872, -30079.21, -31034.75, 0.00, 0.00, 0.00, 0.00, 0.00, 0.00, 0
361873, -30053.33, -31090.83, 0.00, 0.00, 0.00, 0.00, 0.00, 0.00, 0
361874, -30049.77, -31251.22, 0.00, 0.00, 0.00, 0.00, 0.00, 0.00, 0
361875, -30067.70, -31218.26, 0.00, 0.00, 0.00, 0.00, 0.00, 0.00, 0
361876, -30073.51, -31042.39, 0.00, 0.00, 0.00, 0.00, 0.00, 0.00, 0
361877, -30055.12, -31047.60, 0.00, 0.00, 0.00, 0.00, 0.00, 0.00, 0
361878, -30053.08, -31222.62, 0.00, 0.00, 0.00, 0.00, 0.00, 0.00, 0
361879, -30072.84, -31223.06, 0.00, 0.00, 0.00, 0.00, 0.00, 0.00, 0
361880, -30079.43, -31046.37, 0.00, 0.00, 0.00, 0.00, 0.00, 0.00, 0
361881, -30058.04, -31012.64, 0.00, 0.00, 0.00, 0.00, 0.00, 0.00, 0
361882, -30047.18, -31185.29, 0.00, 0.00, 0.00, 0.00, 0.00, 0.00, 0
361883, -30068.33, -31233.79, 0.00, 0.00, 0.00, 0.00, 0.00, 0.00, 0
361884, -30081.83, -31075.49, 0.00, 0.00, 0.00, 0.00, 0.00, 0.00, 0
361885, -30066.18, -31005.24, 0.00, 0.00, 0.00, 0.00, 0.00, 0.00, 0
361886, -30054.65, -31150.04, 0.00, 0.00, 0.00, 0.00, 0.00, 0.00, 0
361887, -30067.83, -31236.65, 0.00, 0.00, 0.00, 0.00, 0.00, 0.00, 0
361888, -30076.78, -31091.52, 0.00, 0.00, 0.00, 0.00, 0.00, 0.00, 0
361889, -30064.06, -30976.74, 0.00, 0.00, 0.00, 0.00, 0.00, 0.00, 0
361890, -30044.63, -31111.71, 0.00, 0.00, 0.00, 0.00, 0.00, 0.00, 0
361891, -30051.07, -31243.07, 0.00, 0.00, 0.00, 0.00, 0.00, 0.00, 0
361892, -30069.00, -31144.03, 0.00, 0.00, 0.00, 0.00, 0.00, 0.00, 0
361893, -30059.90, -31010.03, 0.00, 0.00, 0.00, 0.00, 0.00, 0.00, 0
361894, -30039.42, -31096.91, 0.00, 0.00, 0.00, 0.00, 0.00, 0.00, 0
361895, -30048.92, -31244.41, 0.00, 0.00, 0.00, 0.00, 0.00, 0.00, 0
361896, -30070.36, -31177.60, 0.00, 0.00, 0.00, 0.00, 0.00, 0.00, 0
361897, -30060.32, -31008.60, 0.00, 0.00, 0.00, 0.00, 0.00, 0.00, 0
361898, -30034.26, -31059.29, 0.00, 0.00, 0.00, 0.00, 0.00, 0.00, 0
361899, -30031.67, -31228.04, 0.00, 0.00, 0.00, 0.00, 0.00, 0.00, 0
361900, -30054.91, -31197.49, 0.00, 0.00, 0.00, 0.00, 0.00, 0.00, 0
361901, -30059.65, -31024.60, 0.00, 0.00, 0.00, 0.00, 0.00, 0.00, 0
361902, -30040.45, -31035.22, 0.00, 0.00, 0.00, 0.00, 0.00, 0.00, 0
361903, -30037.46, -31216.09, 0.00, 0.00, 0.00, 0.00, 0.00, 0.00, 0
361904, -30056.26, -31218.52, 0.00, 0.00, 0.00, 0.00, 0.00, 0.00, 0
361905, -30062.40, -31054.33, 0.00, 0.00, 0.00, 0.00, 0.00, 0.00, 0
361906, -30045.88, -31022.07, 0.00, 0.00, 0.00, 0.00, 0.00, 0.00, 0
361907, -30036.43, -31186.38, 0.00, 0.00, 0.00, 0.00, 0.00, 0.00, 0
361908, -30052.90, -31238.51, 0.00, 0.00, 0.00, 0.00, 0.00, 0.00, 0
361909, -30065.49, -31070.64, 0.00, 0.00, 0.00, 0.00, 0.00, 0.00, 0
361910, -30055.27, -31000.39, 0.00, 0.00, 0.00, 0.00, 0.00, 0.00, 0
361911, -30042.96, -31152.79, 0.00, 0.00, 0.00, 0.00, 0.00, 0.00, 0
361912, -30047.99, -31259.96, 0.00, 0.00, 0.00, 0.00, 0.00, 0.00, 0
361913, -30066.60, -31125.52, 0.00, 0.00, 0.00, 0.00, 0.00, 0.00, 0
361914, -30051.38, -31001.47, 0.00, 0.00, 0.00, 0.00, 0.00, 0.00, 0
361915, -30031.78, -31107.93, 0.00, 0.00, 0.00, 0.00, 0.00, 0.00, 0
361916, -30041.06, -31237.70, 0.00, 0.00, 0.00, 0.00, 0.00, 0.00, 0
361917, -30060.01, -31130.59, 0.00, 0.00, 0.00, 0.00, 0.00, 0.00, 0
