%OpenBCI Raw EEG Data
%
%Sample Rate = 250.0 Hz
%First Column = SampleIndex
%Other Columns = EEG data in microvolts with optional columns at end being unscaled Aux data
363093, -28191.94, -25453.43, 0.00, 0.00, 0.00, 0.00, 0.00, 0.00, 0
363094, -28133.58, -25425.22, 0.00, 0.00, 0.00, 0.00, 0.00, 0.00, 0
363095, -28117.91, -25333.22, 0.00, 0.00, 0.00, 0.00, 0.00, 0.00, 0
363096, -28173.34, -25360.27, 0.00, 0.00, 0.00, 0.00, 0.00, 0.00, 0
363097, -28204.71, -25463.69, 0.00, 0.00, 0.00, 0.00, 0.00, 0.00, 0
363098, -28146.99, -25467.00, 0.00, 0.00, 0.00, 0.00, 0.00, 0.00, 0
363099, -28103.25, -25374.33, 0.00, 0.00, 0.00, 0.00, 0.00, 0.00, 0
363100, -28152.69, -25346.77, 0.00, 0.00, 0.00, 0.00, 0.00, 0.00, 0
363101, -28198.60, -25413.71, 0.00, 0.00, 0.00, 0.00, 0.00, 0.00, 0
363102, -28152.04, -25422.29, 0.00, 0.00, 0.00, 0.00, 0.00, 0.00, 0
363103, -28106.92, -25353.72, 0.00, 0.00, 0.00, 0.00, 0.00, 0.00, 0
363104, -28139.57, -25321.42, 0.00, 0.00, 0.00, 0.00, 0.00, 0.00, 0
363105, -28193.01, -25407.47, 0.00, 0.00, 0.00, 0.00, 0.00, 0.00, 0
363106, -28166.21, -25473.19, 0.00, 0.00, 0.00, 0.00, 0.00, 0.00, 0
363107, -28105.39, -25384.41, 0.00, 0.00, 0.00, 0.00, 0.00, 0.00, 0
363108, -28131.50, -25290.71, 0.00, 0.00, 0.00, 0.00, 0.00, 0.00, 0
363109, -28197.35, -25369.54, 0.00, 0.00, 0.00, 0.00, 0.00, 0.00, 0
363110, -28174.84, -25446.43, 0.00, 0.00, 0.00, 0.00, 0.00, 0.00, 0
363111, -28108.97, -25392.83, 0.00, 0.00, 0.00, 0.00, 0.00, 0.00, 0
363112, -28127.43, -25330.63, 0.00, 0.00, 0.00, 0.00, 0.00, 0.00, 0
363113, -28191.49, -25379.82, 0.00, 0.00, 0.00, 0.00, 0.00, 0.00, 0
363114, -28185.91, -25452.53, 0.00, 0.00, 0.00, 0.00, 0.00, 0.00, 0
363115, -28112.21, -25410.42, 0.00, 0.00, 0.00, 0.00, 0.00, 0.00, 0
363116, -28108.01, -25329.24, 0.00, 0.00, 0.00, 0.00, 0.00, 0.00, 0
363117, -28168.20, -25357.58, 0.00, 0.00, 0.00, 0.00, 0.00, 0.00, 0
363118, -28186.11, -25446.79, 0.00, 0.00, 0.00, 0.00, 0.00, 0.00, 0
363119, -28130.61, -25418.38, 0.00, 0.00, 0.00, 0.00, 0.00, 0.00, 0
363120, -28103.12, -25342.05, 0.00, 0.00, 0.00, 0.00, 0.00, 0.00, 0
363121, -28162.88, -25357.05, 0.00, 0.00, 0.00, 0.00, 0.00, 0.00, 0
363122, -28200.79, -25451.15, 0.00, 0.00, 0.00, 0.00, 0.00, 0.00, 0
363123, -28143.17, -25436.49, 0.00, 0.00, 0.00, 0.00, 0.00, 0.00, 0
363124, -28101.15, -25310.00, 0.00, 0.00, 0.00, 0.00, 0.00, 0.00, 0
363125, -28145.96, -25301.41, 0.00, 0.00, 0.00, 0.00, 0.00, 0.00, 0
363126, -28189.77, -25446.30, 0.00, 0.00, 0.00, 0.00, 0.00, 0.00, 0
363127, -28148.54, -25484.77, 0.00, 0.00, 0.00, 0.00, 0.00, 0.00, 0
363128, -28087.07, -25364.00, 0.00, 0.00, 0.00, 0.00, 0.00, 0.00, 0
363129, -28117.31, -25291.76, 0.00, 0.00, 0.00, 0.00, 0.00, 0.00, 0
363130, -28194.29, -25405.64, 0.00, 0.00, 0.00, 0.00, 0.00, 0.00, 0
363131, -28166.82, -25473.97, 0.00, 0.00, 0.00, 0.00, 0.00, 0.00, 0
363132, -28100.14, -25361.94, 0.00, 0.00, 0.00, 0.00, 0.00, 0.00, 0
363133, -28111.34, -25293.32, 0.00, 0.00, 0.00, 0.00, 0.00, 0.00, 0
363134, -28175.29, -25384.00, 0.00, 0.00, 0.00, 0.00, 0.00, 0.00, 0
363135, -28169.63, -25451.19, 0.00, 0.00, 0.00, 0.00, 0.00, 0.00, 0
363136, -28100.77, -25377.77, 0.00, 0.00, 0.00, 0.00, 0.00, 0.00, 0
363137, -28105.06, -25324.88, 0.00, 0.00, 0.00, 0.00, 0.00, 0.00, 0
363138, -28176.92, -25416.06, 0.00, 0.00, 0.00, 0.00, 0.00, 0.00, 0
363139, -28185.50, -25492.01, 0.00, 0.00, 0.00, 0.00, 0.00, 0.00, 0
363140, -28107.25, -25418.29, 0.00, 0.00, 0.00, 0.00, 0.00, 0.00, 0
363141, -28082.31, -25303.98, 0.00, 0.00, 0.00, 0.00, 0.00, 0.00, 0
363142, -28150.23, -25329.26, 0.00, 0.00, 0.00, 0.00, 0.00, 0.00, 0
363143, -28186.44, -25446.23, 0.00, 0.00, 0.00, 0.00, 0.00, 0.00, 0
363144, -28118.52, -25412.01, 0.00, 0.00, 0.00, 0.00, 0.00, 0.00, 0
363145, -28100.34, -25308.03, 0.00, 0.00, 0.00, 0.00, 0.00, 0.00, 0
363146, -28153.99, -25327.25, 0.00, 0.00, 0.00, 0.00, 0.00, 0.00, 0
363147, -28190.31, -25428.37, 0.00, 0.00, 0.00, 0.00, 0.00, 0.00, 0
363148, -28127.30, -25421.96, 0.00, 0.00, 0.00, 0.00, 0.00, 0.00, 0
363149, -28070.44, -25330.45, 0.00, 0.00, 0.00, 0.00, 0.00, 0.00, 0
363150, -28118.98, -25320.37, 0.00, 0.00, 0.00, 0.00, 0.00, 0.00, 0
363151, -28181.37, -25420.91, 0.00, 0.00, 0.00, 0.00, 0.00, 0.00, 0
363152, -28149.47, -25438.61, 0.00, 0.00, 0.00, 0.00, 0.00, 0.00, 0
363153, -28071.96, -25313.66, 0.00, 0.00, 0.00, 0.00, 0.00, 0.00, 0
363154, -28088.90, -25286.68, 0.00, 0.00, 0.00, 0.00, 0.00, 0.00, 0
363155, -28153.00, -25433.07, 0.00, 0.00, 0.00, 0.00, 0.00, 0.00, 0
363156, -28134.30, -25478.71, 0.00, 0.00, 0.00, 0.00, 0.00, 0.00, 0
363157, -28063.08, -25354.01, 0.00, 0.00, 0.00, 0.00, 0.00, 0.00, 0
363158, -28070.79, -25269.38, 0.00, 0.00, 0.00, 0.00, 0.00, 0.00, 0
363159, -28130.32, -25367.15, 0.00, 0.00, 0.00, 0.00, 0.00, 0.00, 0
363160, -28132.91, -25451.91, 0.00, 0.00, 0.00, 0.00, 0.00, 0.00, 0
363161, -28084.83, -25367.60, 0.00, 0.00, 0.00, 0.00, 0.00, 0.00, 0
363162, -28073.14, -25266.28, 0.00, 0.00, 0.00, 0.00, 0.00, 0.00, 0
363163, -28130.38, -25379.62, 0.00, 0.00, 0.00, 0.00, 0.00, 0.00, 0
363164, -28149.65, -25479.63, 0.00, 0.00, 0.00, 0.00, 0.00, 0.00, 0
363165, -28090.44, -25369.83, 0.00, 0.00, 0.00, 0.00, 0.00, 0.00, 0
363166, -28068.69, -25269.85, 0.00, 0.00, 0.00, 0.00, 0.00, 0.00, 0
363167, -28136.64, -25359.89, 0.00, 0.00, 0.00, 0.00, 0.00, 0.00, 0
363168, -28176.29, -25494.09, 0.00, 0.00, 0.00, 0.00, 0.00, 0.00, 0
363169, -28121.94, -25419.43, 0.00, 0.00, 0.00, 0.00, 0.00, 0.00, 0
363170, -28075.20, -25280.36, 0.00, 0.00, 0.00, 0.00, 0.00, 0.00, 0
363171, -28113.44, -25336.64, 0.00, 0.00, 0.00, 0.00, 0.00, 0.00, 0
363172, -28171.51, -25494.51, 0.00, 0.00, 0.00, 0.00, 0.00, 0.00, 0
363173, -28140.94, -25450.57, 0.00, 0.00, 0.00, 0.00, 0.00, 0.00, 0
363174, -28072.96, -25230.67, 0.00, 0.00, 0.00, 0.00, 0.00, 0.00, 0
363175, -28099.70, -25257.34, 0.00, 0.00, 0.00, 0.00, 0.00, 0.00, 0
363176, -28181.62, -25532.71, 0.00, 0.00, 0.00, 0.00, 0.00, 0.00, 0
363177, -28150.48, -25533.40, 0.00, 0.00, 0.00, 0.00, 0.00, 0.00, 0
363178, -28073.19, -25303.52, 0.00, 0.00, 0.00, 0.00, 0.00, 0.00, 0
363179, -28086.46, -25275.15, 0.00, 0.00, 0.00, 0.00, 0.00, 0.00, 0
363180, -28179.45, -25476.76, 0.00, 0.00, 0.00, 0.00, 0.00, 0.00, 0
363181, -28170.60, -25487.18, 0.00, 0.00, 0.00, 0.00, 0.00, 0.00, 0
363182, -28091.76, -25293.90, 0.00, 0.00, 0.00, 0.00, 0.00, 0.00, 0
363183, -28099.63, -25258.72, 0.00, 0.00, 0.00, 0.00, 0.00, 0.00, 0
363184, -28173.39, -25471.20, 0.00, 0.00, 0.00, 0.00, 0.00, 0.00, 0
363185, -28184.19, -25550.66, 0.00, 0.00, 0.00, 0.00, 0.00, 0.00, 0
363186, -28101.97, -25324.21, 0.00, 0.00, 0.00, 0.00, 0.00, 0.00, 0
363187, -28094.40, -25208.47, 0.00, 0.00, 0.00, 0.00, 0.00, 0.00, 0
363188, -28176.16, -25413.93, 0.00, 0.00, 0.00, 0.00, 0.00, 0.00, 0
363189, -28213.62, -25567.20, 0.00, 0.00, 0.00, 0.00, 0.00, 0.00, 0
363190, -28136.76, -25385.61, 0.00, 0.00, 0.00, 0.00, 0.00, 0.00, 0
363191, -28089.73, -25202.71, 0.00, 0.00, 0.00, 0.00, 0.00, 0.00, 0
363192, -28155.08, -25350.65, 0.00, 0.00, 0.00, 0.00, 0.00, 0.00, 0
363193, -28216.62, -25567.58, 0.00, 0.00, 0.00, 0.00, 0.00, 0.00, 0
363194, -28149.47, -25426.65, 0.00, 0.00, 0.00, 0.00, 0.00, 0.00, 0
363195, -28086.33, -25184.63, 0.00, 0.00, 0.00, 0.00, 0.00, 0.00, 0
363196, -28137.07, -25277.63, 0.00, 0.00, 0.00, 0.00, 0.00, 0.00, 0
363197, -28206.29, -25540.49, 0.00, 0.00, 0.00, 0.00, 0.00, 0.00, 0
363198, -28161.32, -25446.21, 0.00, 0.00, 0.00, 0.00, 0.00, 0.00, 0
363199, -28085.70, -25194.35, 0.00, 0.00, 0.00, 0.00, 0.00, 0.00, 0
363200, -28125.78, -25268.40, 0.00, 0.00, 0.00, 0.00, 0.00, 0.00, 0
363201, -28204.55, -25534.34, 0.00, 0.00, 0.00, 0.00, 0.00, 0.00, 0
363202, -28175.89, -25492.21, 0.00, 0.00, 0.00, 0.00, 0.00, 0.00, 0
363203, -28078.55, -25213.35, 0.00, 0.00, 0.00, 0.00, 0.00, 0.00, 0
363204, -28087.60, -25186.44, 0.00, 0.00, 0.00, 0.00, 0.00, 0.00, 0
363205, -28165.79, -25479.22, 0.00, 0.00, 0.00, 0.00, 0.00, 0.00, 0
363206, -28162.28, -25523.01, 0.00, 0.00, 0.00, 0.00, 0.00, 0.00, 0
363207, -28057.50, -25263.15, 0.00, 0.00, 0.00, 0.00, 0.00, 0.00, 0
363208, -28033.04, -25206.75, 0.00, 0.00, 0.00, 0.00, 0.00, 0.00, 0
363209, -28125.47, -25450.63, 0.00, 0.00, 0.00, 0.00, 0.00, 0.00, 0
363210, -28140.06, -25541.99, 0.00, 0.00, 0.00, 0.00, 0.00, 0.00, 0
363211, -28028.21, -25288.88, 0.00, 0.00, 0.00, 0.00, 0.00, 0.00, 0
363212, -27978.06, -25146.92, 0.00, 0.00, 0.00, 0.00, 0.00, 0.00, 0
363213, -28046.90, -25374.19, 0.00, 0.00, 0.00, 0.00, 0.00, 0.00, 0
363214, -28085.68, -25536.58, 0.00, 0.00, 0.00, 0.00, 0.00, 0.00, 0
363215, -27992.18, -25314.40, 0.00, 0.00, 0.00, 0.00, 0.00, 0.00, 0
363216, -27918.20, -25155.57, 0.00, 0.00, 0.00, 0.00, 0.00, 0.00, 0
363217, -27980.61, -25344.75, 0.00, 0.00, 0.00, 0.00, 0.00, 0.00, 0
363218, -28053.27, -25569.41, 0.00, 0.00, 0.00, 0.00, 0.00, 0.00, 0
363219, -27981.97, -25375.89, 0.00, 0.00, 0.00, 0.00, 0.00, 0.00, 0
363220, -27891.42, -25127.43, 0.00, 0.00, 0.00, 0.00, 0.00, 0.00, 0
363221, -27941.49, -25261.99, 0.00, 0.00, 0.00, 0.00, 0.00, 0.00, 0
363222, -28019.68, -25539.62, 0.00, 0.00, 0.00, 0.00, 0.00, 0.00, 0
363223, -27967.51, -25431.28, 0.00, 0.00, 0.00, 0.00, 0.00, 0.00, 0
363224, -27880.83, -25163.62, 0.00, 0.00, 0.00, 0.00, 0.00, 0.00, 0
363225, -27917.75, -25228.88, 0.00, 0.00, 0.00, 0.00, 0.00, 0.00, 0
363226, -28013.31, -25518.36, 0.00, 0.00, 0.00, 0.00, 0.00, 0.00, 0
363227, -27992.77, -25472.94, 0.00, 0.00, 0.00, 0.00, 0.00, 0.00, 0
363228, -27891.38, -25173.36, 0.00, 0.00, 0.00, 0.00, 0.00, 0.00, 0
363229, -27900.27, -25173.76, 0.00, 0.00, 0.00, 0.00, 0.00, 0.00, 0
363230, -28005.30, -25465.39, 0.00, 0.00, 0.00, 0.00, 0.00, 0.00, 0
363231, -28015.81, -25539.13, 0.00, 0.00, 0.00, 0.00, 0.00, 0.00, 0
363232, -27894.02, -25249.47, 0.00, 0.00, 0.00, 0.00, 0.00, 0.00, 0
363233, -27877.45, -25172.42, 0.00, 0.00, 0.00, 0.00, 0.00, 0.00, 0
363234, -27989.68, -25428.51, 0.00, 0.00, 0.00, 0.00, 0.00, 0.00, 0
363235, -28036.84, -25536.62, 0.00, 0.00, 0.00, 0.00, 0.00, 0.00, 0
363236, -27937.96, -25267.86, 0.00, 0.00, 0.00, 0.00, 0.00, 0.00, 0
363237, -27899.49, -25141.73, 0.00, 0.00, 0.00, 0.00, 0.00, 0.00, 0
363238, -28003.36, -25378.73, 0.00, 0.00, 0.00, 0.00, 0.00, 0.00, 0
363239, -28065.39, -25561.23, 0.00, 0.00, 0.00, 0.00, 0.00, 0.00, 0
363240, -27976.85, -25335.99, 0.00, 0.00, 0.00, 0.00, 0.00, 0.00, 0
363241, -27911.72, -25149.53, 0.00, 0.00, 0.00, 0.00, 0.00, 0.00, 0
363242, -28003.00, -25338.27, 0.00, 0.00, 0.00, 0.00, 0.00, 0.00, 0
363243, -28096.86, -25564.29, 0.00, 0.00, 0.00, 0.00, 0.00, 0.00, 0
363244, -28019.52, -25387.76, 0.00, 0.00, 0.00, 0.00, 0.00, 0.00, 0
363245, -27923.14, -25147.99, 0.00, 0.00, 0.00, 0.00, 0.00, 0.00, 0
363246, -27997.35, -25279.67, 0.00, 0.00, 0.00, 0.00, 0.00, 0.00, 0
363247, -28116.33, -25563.78, 0.00, 0.00, 0.00, 0.00, 0.00, 0.00, 0
363248, -28073.95, -25474.26, 0.00, 0.00, 0.00, 0.00, 0.00, 0.00, 0
363249, -27955.57, -25179.71, 0.00, 0.00, 0.00, 0.00, 0.00, 0.00, 0
363250, -27997.06, -25228.01, 0.00, 0.00, 0.00, 0.00, 0.00, 0.00, 0
363251, -28133.76, -25529.94, 0.00, 0.00, 0.00, 0.00, 0.00, 0.00, 0
363252, -28119.10, -25514.78, 0.00, 0.00, 0.00, 0.00, 0.00, 0.00, 0
363253, -27984.76, -25200.41, 0.00, 0.00, 0.00, 0.00, 0.00, 0.00, 0
363254, -27999.63, -25185.43, 0.00, 0.00, 0.00, 0.00, 0.00, 0.00, 0
363255, -28135.84, -25506.04, 0.00, 0.00, 0.00, 0.00, 0.00, 0.00, 0
363256, -28155.11, -25576.59, 0.00, 0.00, 0.00, 0.00, 0.00, 0.00, 0
363257, -28020.64, -25254.39, 0.00, 0.00, 0.00, 0.00, 0.00, 0.00, 0
363258, -28004.54, -25133.78, 0.00, 0.00, 0.00, 0.00, 0.00, 0.00, 0
363259, -28129.38, -25417.82, 0.00, 0.00, 0.00, 0.00, 0.00, 0.00, 0
363260, -28179.98, -25608.37, 0.00, 0.00, 0.00, 0.00, 0.00, 0.00, 0
363261, -28058.55, -25348.15, 0.00, 0.00, 0.00, 0.00, 0.00, 0.00, 0
363262, -28009.24, -25183.24, 0.00, 0.00, 0.00, 0.00, 0.00, 0.00, 0
363263, -28117.69, -25388.90, 0.00, 0.00, 0.00, 0.00, 0.00, 0.00, 0
363264, -28193.42, -25570.30, 0.00, 0.00, 0.00, 0.00, 0.00, 0.00, 0
363265, -28091.18, -25343.01, 0.00, 0.00, 0.00, 0.00, 0.00, 0.00, 0
363266, -28010.85, -25143.05, 0.00, 0.00, 0.00, 0.00, 0.00, 0.00, 0
363267, -28114.18, -25369.72, 0.00, 0.00, 0.00, 0.00, 0.00, 0.00, 0
363268, -28219.79, -25646.41, 0.00, 0.00, 0.00, 0.00, 0.00, 0.00, 0
363269, -28123.43, -25447.30, 0.00, 0.00, 0.00, 0.00, 0.00, 0.00, 0
363270, -28014.89, -25147.21, 0.00, 0.00, 0.00, 0.00, 0.00, 0.00, 0
363271, -28103.09, -25286.77, 0.00, 0.00, 0.00, 0.00, 0.00, 0.00, 0
363272, -28220.33, -25599.14, 0.00, 0.00, 0.00, 0.00, 0.00, 0.00, 0
363273, -28160.22, -25504.41, 0.00, 0.00, 0.00, 0.00, 0.00, 0.00, 0
363274, -28033.76, -25188.78, 0.00, 0.00, 0.00, 0.00, 0.00, 0.00, 0
363275, -28083.00, -25236.21, 0.00, 0.00, 0.00, 0.00, 0.00, 0.00, 0
363276, -28224.42, -25561.99, 0.00, 0.00, 0.00, 0.00, 0.00, 0.00, 0
363277, -28198.96, -25545.76, 0.00, 0.00, 0.00, 0.00, 0.00, 0.00, 0
363278, -28049.31, -25201.12, 0.00, 0.00, 0.00, 0.00, 0.00, 0.00, 0
363279, -28055.95, -25149.33, 0.00, 0.00, 0.00, 0.00, 0.00, 0.00, 0
363280, -28199.85, -25486.33, 0.00, 0.00, 0.00, 0.00, 0.00, 0.00, 0
363281, -28215.77, -25584.41, 0.00, 0.00, 0.00, 0.00, 0.00, 0.00, 0
363282, -28070.55, -25252.98, 0.00, 0.00, 0.00, 0.00, 0.00, 0.00, 0
363283, -28035.55, -25127.58, 0.00, 0.00, 0.00, 0.00, 0.00, 0.00, 0
363284, -28177.61, -25455.19, 0.00, 0.00, 0.00, 0.00, 0.00, 0.00, 0
363285, -28235.62, -25639.60, 0.00, 0.00, 0.00, 0.00, 0.00, 0.00, 0
363286, -28096.72, -25319.00, 0.00, 0.00, 0.00, 0.00, 0.00, 0.00, 0
363287, -28030.14, -25111.51, 0.00, 0.00, 0.00, 0.00, 0.00, 0.00, 0
363288, -28156.29, -25349.94, 0.00, 0.00, 0.00, 0.00, 0.00, 0.00, 0
363289, -28254.21, -25614.67, 0.00, 0.00, 0.00, 0.00, 0.00, 0.00, 0
363290, -28137.40, -25419.12, 0.00, 0.00, 0.00, 0.00, 0.00, 0.00, 0
363291, -28029.29, -25159.28, 0.00, 0.00, 0.00, 0.00, 0.00, 0.00, 0
363292, -28132.69, -25328.41, 0.00, 0.00, 0.00, 0.00, 0.00, 0.00, 0
363293, -28254.10, -25614.07, 0.00, 0.00, 0.00, 0.00, 0.00, 0.00, 0
363294, -28160.47, -25468.20, 0.00, 0.00, 0.00, 0.00, 0.00, 0.00, 0
363295, -28028.15, -25166.92, 0.00, 0.00, 0.00, 0.00, 0.00, 0.00, 0
363296, -28111.59, -25280.18, 0.00, 0.00, 0.00, 0.00, 0.00, 0.00, 0
363297, -28257.72, -25603.32, 0.00, 0.00, 0.00, 0.00, 0.00, 0.00, 0
363298, -28198.49, -25510.65, 0.00, 0.00, 0.00, 0.00, 0.00, 0.00, 0
363299, -28044.82, -25157.07, 0.00, 0.00, 0.00, 0.00, 0.00, 0.00, 0
363300, -28088.30, -25198.13, 0.00, 0.00, 0.00, 0.00, 0.00, 0.00, 0
363301, -28242.26, -25546.46, 0.00, 0.00, 0.00, 0.00, 0.00, 0.00, 0
363302, -28222.72, -25566.80, 0.00, 0.00, 0.00, 0.00, 0.00, 0.00, 0
363303, -28060.51, -25234.89, 0.00, 0.00, 0.00, 0.00, 0.00, 0.00, 0
363304, -28066.77, -25179.20, 0.00, 0.00, 0.00, 0.00, 0.00, 0.00, 0
363305, -28220.28, -25485.03, 0.00, 0.00, 0.00, 0.00, 0.00, 0.00, 0
363306, -28248.27, -25588.10, 0.00, 0.00, 0.00, 0.00, 0.00, 0.00, 0
363307, -28093.62, -25276.34, 0.00, 0.00, 0.00, 0.00, 0.00, 0.00, 0
363308, -28057.96, -25156.80, 0.00, 0.00, 0.00, 0.00, 0.00, 0.00, 0
363309, -28202.80, -25455.13, 0.00, 0.00, 0.00, 0.00, 0.00, 0.00, 0
363310, -28269.84, -25625.89, 0.00, 0.00, 0.00, 0.00, 0.00, 0.00, 0
363311, -28121.78, -25344.96, 0.00, 0.00, 0.00, 0.00, 0.00, 0.00, 0
363312, -28030.88, -25149.89, 0.00, 0.00, 0.00, 0.00, 0.00, 0.00, 0
363313, -28158.93, -25375.62, 0.00, 0.00, 0.00, 0.00, 0.00, 0.00, 0
363314, -28273.35, -25655.51, 0.00, 0.00, 0.00, 0.00, 0.00, 0.00, 0
363315, -28152.22, -25430.41, 0.00, 0.00, 0.00, 0.00, 0.00, 0.00, 0
363316, -28030.58, -25119.38, 0.00, 0.00, 0.00, 0.00, 0.00, 0.00, 0
363317, -28139.77, -25321.22, 0.00, 0.00, 0.00, 0.00, 0.00, 0.00, 0
363318, -28275.25, -25659.13, 0.00, 0.00, 0.00, 0.00, 0.00, 0.00, 0
363319, -28182.78, -25505.26, 0.00, 0.00, 0.00, 0.00, 0.00, 0.00, 0
363320, -28035.39, -25162.92, 0.00, 0.00, 0.00, 0.00, 0.00, 0.00, 0
363321, -28113.38, -25267.21, 0.00, 0.00, 0.00, 0.00, 0.00, 0.00, 0
363322, -28269.68, -25605.17, 0.00, 0.00, 0.00, 0.00, 0.00, 0.00, 0
363323, -28211.97, -25531.86, 0.00, 0.00, 0.00, 0.00, 0.00, 0.00, 0
363324, -28038.85, -25178.37, 0.00, 0.00, 0.00, 0.00, 0.00, 0.00, 0
363325, -28078.69, -25194.35, 0.00, 0.00, 0.00, 0.00, 0.00, 0.00, 0
363326, -28250.03, -25574.87, 0.00, 0.00, 0.00, 0.00, 0.00, 0.00, 0
363327, -28240.60, -25620.98, 0.00, 0.00, 0.00, 0.00, 0.00, 0.00, 0
363328, -28065.01, -25252.20, 0.00, 0.00, 0.00, 0.00, 0.00, 0.00, 0
363329, -28060.89, -25171.62, 0.00, 0.00, 0.00, 0.00, 0.00, 0.00, 0
363330, -28232.51, -25534.90, 0.00, 0.00, 0.00, 0.00, 0.00, 0.00, 0
363331, -28266.22, -25667.94, 0.00, 0.00, 0.00, 0.00, 0.00, 0.00, 0
363332, -28090.02, -25299.58, 0.00, 0.00, 0.00, 0.00, 0.00, 0.00, 0
363333, -28037.83, -25155.37, 0.00, 0.00, 0.00, 0.00, 0.00, 0.00, 0
363334, -28197.87, -25466.06, 0.00, 0.00, 0.00, 0.00, 0.00, 0.00, 0
363335, -28290.31, -25667.02, 0.00, 0.00, 0.00, 0.00, 0.00, 0.00, 0
363336, -28144.11, -25387.80, 0.00, 0.00, 0.00, 0.00, 0.00, 0.00, 0
363337, -28044.13, -25158.81, 0.00, 0.00, 0.00, 0.00, 0.00, 0.00, 0
363338, -28176.05, -25405.08, 0.00, 0.00, 0.00, 0.00, 0.00, 0.00, 0
363339, -28293.44, -25681.53, 0.00, 0.00, 0.00, 0.00, 0.00, 0.00, 0
363340, -28152.27, -25439.99, 0.00, 0.00, 0.00, 0.00, 0.00, 0.00, 0
363341, -28014.65, -25154.85, 0.00, 0.00, 0.00, 0.00, 0.00, 0.00, 0
363342, -28139.35, -25353.20, 0.00, 0.00, 0.00, 0.00, 0.00, 0.00, 0
363343, -28297.51, -25691.29, 0.00, 0.00, 0.00, 0.00, 0.00, 0.00, 0
363344, -28201.37, -25520.46, 0.00, 0.00, 0.00, 0.00, 0.00, 0.00, 0
363345, -28029.62, -25162.12, 0.00, 0.00, 0.00, 0.00, 0.00, 0.00, 0
363346, -28103.54, -25264.42, 0.00, 0.00, 0.00, 0.00, 0.00, 0.00, 0
363347, -28277.21, -25618.25, 0.00, 0.00, 0.00, 0.00, 0.00, 0.00, 0
363348, -28226.16, -25561.21, 0.00, 0.00, 0.00, 0.00, 0.00, 0.00, 0
363349, -28044.71, -25202.02, 0.00, 0.00, 0.00, 0.00, 0.00, 0.00, 0
363350, -28085.88, -25219.99, 0.00, 0.00, 0.00, 0.00, 0.00, 0.00, 0
363351, -28270.96, -25604.23, 0.00, 0.00, 0.00, 0.00, 0.00, 0.00, 0
363352, -28269.41, -25643.53, 0.00, 0.00, 0.00, 0.00, 0.00, 0.00, 0
363353, -28068.16, -25231.03, 0.00, 0.00, 0.00, 0.00, 0.00, 0.00, 0
363354, -28053.94, -25158.16, 0.00, 0.00, 0.00, 0.00, 0.00, 0.00, 0
363355, -28234.77, -25515.46, 0.00, 0.00, 0.00, 0.00, 0.00, 0.00, 0
363356, -28282.80, -25620.28, 0.00, 0.00, 0.00, 0.00, 0.00, 0.00, 0
363357, -28098.85, -25302.55, 0.00, 0.00, 0.00, 0.00, 0.00, 0.00, 0
363358, -28037.60, -25186.66, 0.00, 0.00, 0.00, 0.00, 0.00, 0.00, 0
363359, -28207.21, -25479.91, 0.00, 0.00, 0.00, 0.00, 0.00, 0.00, 0
363360, -28301.64, -25687.65, 0.00, 0.00, 0.00, 0.00, 0.00, 0.00, 0
363361, -28129.38, -25367.73, 0.00, 0.00, 0.00, 0.00, 0.00, 0.00, 0
363362, -28014.42, -25105.59, 0.00, 0.00, 0.00, 0.00, 0.00, 0.00, 0
363363, -28170.10, -25382.77, 0.00, 0.00, 0.00, 0.00, 0.00, 0.00, 0
363364, -28316.73, -25712.69, 0.00, 0.00, 0.00, 0.00, 0.00, 0.00, 0
363365, -28178.69, -25486.67, 0.00, 0.00, 0.00, 0.00, 0.00, 0.00, 0
363366, -28024.04, -25140.44, 0.00, 0.00, 0.00, 0.00, 0.00, 0.00, 0
363367, -28142.30, -25307.72, 0.00, 0.00, 0.00, 0.00, 0.00, 0.00, 0
363368, -28310.43, -25665.35, 0.00, 0.00, 0.00, 0.00, 0.00, 0.00, 0
363369, -28206.94, -25524.04, 0.00, 0.00, 0.00, 0.00, 0.00, 0.00, 0
363370, -28020.64, -25157.16, 0.00, 0.00, 0.00, 0.00, 0.00, 0.00, 0
363371, -28102.27, -25257.76, 0.00, 0.00, 0.00, 0.00, 0.00, 0.00, 0
363372, -28290.76, -25639.19, 0.00, 0.00, 0.00, 0.00, 0.00, 0.00, 0
363373, -28241.36, -25594.91, 0.00, 0.00, 0.00, 0.00, 0.00, 0.00, 0
363374, -28031.54, -25193.28, 0.00, 0.00, 0.00, 0.00, 0.00, 0.00, 0
363375, -28060.80, -25188.27, 0.00, 0.00, 0.00, 0.00, 0.00, 0.00, 0
363376, -28260.85, -25577.79, 0.00, 0.00, 0.00, 0.00, 0.00, 0.00, 0
363377, -28268.61, -25655.20, 0.00, 0.00, 0.00, 0.00, 0.00, 0.00, 0
363378, -28058.03, -25262.43, 0.00, 0.00, 0.00, 0.00, 0.00, 0.00, 0
363379, -28035.48, -25159.41, 0.00, 0.00, 0.00, 0.00, 0.00, 0.00, 0
363380, -28228.58, -25515.90, 0.00, 0.00, 0.00, 0.00, 0.00, 0.00, 0
363381, -28291.18, -25681.13, 0.00, 0.00, 0.00, 0.00, 0.00, 0.00, 0
363382, -28091.13, -25314.04, 0.00, 0.00, 0.00, 0.00, 0.00, 0.00, 0
363383, -28014.04, -25122.73, 0.00, 0.00, 0.00, 0.00, 0.00, 0.00, 0
363384, -28197.60, -25442.21, 0.00, 0.00, 0.00, 0.00, 0.00, 0.00, 0
363385, -28315.44, -25694.40, 0.00, 0.00, 0.00, 0.00, 0.00, 0.00, 0
363386, -28138.30, -25400.92, 0.00, 0.00, 0.00, 0.00, 0.00, 0.00, 0
363387, -28005.55, -25134.98, 0.00, 0.00, 0.00, 0.00, 0.00, 0.00, 0
363388, -28161.65, -25381.12, 0.00, 0.00, 0.00, 0.00, 0.00, 0.00, 0
363389, -28319.70, -25715.73, 0.00, 0.00, 0.00, 0.00, 0.00, 0.00, 0
363390, -28172.74, -25491.49, 0.00, 0.00, 0.00, 0.00, 0.00, 0.00, 0
363391, -27995.96, -25123.23, 0.00, 0.00, 0.00, 0.00, 0.00, 0.00, 0
363392, -28119.16, -25282.21, 0.00, 0.00, 0.00, 0.00, 0.00, 0.00, 0
363393, -28311.57, -25664.09, 0.00, 0.00, 0.00, 0.00, 0.00, 0.00, 0
363394, -28216.84, -25541.76, 0.00, 0.00, 0.00, 0.00, 0.00, 0.00, 0
363395, -28013.35, -25140.10, 0.00, 0.00, 0.00, 0.00, 0.00, 0.00, 0
363396, -28093.86, -25210.29, 0.00, 0.00, 0.00, 0.00, 0.00, 0.00, 0
363397, -28302.94, -25623.79, 0.00, 0.00, 0.00, 0.00, 0.00, 0.00, 0
363398, -28264.70, -25610.61, 0.00, 0.00, 0.00, 0.00, 0.00, 0.00, 0
363399, -28041.80, -25192.20, 0.00, 0.00, 0.00, 0.00, 0.00, 0.00, 0
363400, -28069.07, -25162.21, 0.00, 0.00, 0.00, 0.00, 0.00, 0.00, 0
363401, -28295.23, -25556.09, 0.00, 0.00, 0.00, 0.00, 0.00, 0.00, 0
363402, -28314.94, -25650.46, 0.00, 0.00, 0.00, 0.00, 0.00, 0.00, 0
363403, -28081.81, -25243.08, 0.00, 0.00, 0.00, 0.00, 0.00, 0.00, 0
363404, -28050.23, -25096.07, 0.00, 0.00, 0.00, 0.00, 0.00, 0.00, 0
363405, -28271.47, -25415.21, 0.00, 0.00, 0.00, 0.00, 0.00, 0.00, 0
363406, -28363.22, -25611.25, 0.00, 0.00, 0.00, 0.00, 0.00, 0.00, 0
363407, -28153.85, -25328.79, 0.00, 0.00, 0.00, 0.00, 0.00, 0.00, 0
363408, -28049.92, -25057.80, 0.00, 0.00, 0.00, 0.00, 0.00, 0.00, 0
363409, -28241.79, -25310.82, 0.00, 0.00, 0.00, 0.00, 0.00, 0.00, 0
363410, -28393.00, -25711.12, 0.00, 0.00, 0.00, 0.00, 0.00, 0.00, 0
363411, -28214.36, -25480.36, 0.00, 0.00, 0.00, 0.00, 0.00, 0.00, 0
363412, -28059.98, -25163.04, 0.00, 0.00, 0.00, 0.00, 0.00, 0.00, 0
363413, -28225.49, -25388.88, 0.00, 0.00, 0.00, 0.00, 0.00, 0.00, 0
363414, -28414.92, -25754.26, 0.00, 0.00, 0.00, 0.00, 0.00, 0.00, 0
363415, -28270.40, -25553.68, 0.00, 0.00, 0.00, 0.00, 0.00, 0.00, 0
363416, -28070.59, -25153.40, 0.00, 0.00, 0.00, 0.00, 0.00, 0.00, 0
363417, -28203.56, -25290.42, 0.00, 0.00, 0.00, 0.00, 0.00, 0.00, 0
363418, -28427.66, -25696.73, 0.00, 0.00, 0.00, 0.00, 0.00, 0.00, 0
363419, -28330.30, -25583.67, 0.00, 0.00, 0.00, 0.00, 0.00, 0.00, 0
363420, -28092.28, -25146.52, 0.00, 0.00, 0.00, 0.00, 0.00, 0.00, 0
363421, -28162.66, -25191.69, 0.00, 0.00, 0.00, 0.00, 0.00, 0.00, 0
363422, -28402.94, -25621.29, 0.00, 0.00, 0.00, 0.00, 0.00, 0.00, 0
363423, -28375.47, -25621.80, 0.00, 0.00, 0.00, 0.00, 0.00, 0.00, 0
363424, -28123.88, -25183.46, 0.00, 0.00, 0.00, 0.00, 0.00, 0.00, 0
363425, -28128.17, -25114.55, 0.00, 0.00, 0.00, 0.00, 0.00, 0.00, 0
363426, -28366.93, -25495.65, 0.00, 0.00, 0.00, 0.00, 0.00, 0.00, 0
363427, -28405.91, -25683.25, 0.00, 0.00, 0.00, 0.00, 0.00, 0.00, 0
363428, -28160.85, -25337.45, 0.00, 0.00, 0.00, 0.00, 0.00, 0.00, 0
363429, -28104.32, -25149.04, 0.00, 0.00, 0.00, 0.00, 0.00, 0.00, 0
363430, -28326.30, -25479.13, 0.00, 0.00, 0.00, 0.00, 0.00, 0.00, 0
363431, -28429.14, -25733.58, 0.00, 0.00, 0.00, 0.00, 0.00, 0.00, 0
363432, -28208.53, -25424.17, 0.00, 0.00, 0.00, 0.00, 0.00, 0.00, 0
363433, -28087.36, -25146.29, 0.00, 0.00, 0.00, 0.00, 0.00, 0.00, 0
363434, -28279.67, -25418.87, 0.00, 0.00, 0.00, 0.00, 0.00, 0.00, 0
363435, -28435.71, -25721.58, 0.00, 0.00, 0.00, 0.00, 0.00, 0.00, 0
363436, -28244.98, -25456.83, 0.00, 0.00, 0.00, 0.00, 0.00, 0.00, 0
363437, -28067.11, -25108.56, 0.00, 0.00, 0.00, 0.00, 0.00, 0.00, 0
363438, -28232.58, -25328.82, 0.00, 0.00, 0.00, 0.00, 0.00, 0.00, 0
363439, -28429.65, -25701.62, 0.00, 0.00, 0.00, 0.00, 0.00, 0.00, 0
363440, -28295.81, -25513.58, 0.00, 0.00, 0.00, 0.00, 0.00, 0.00, 0
363441, -28080.29, -25107.94, 0.00, 0.00, 0.00, 0.00, 0.00, 0.00, 0
363442, -28192.52, -25218.47, 0.00, 0.00, 0.00, 0.00, 0.00, 0.00, 0
363443, -28416.60, -25636.09, 0.00, 0.00, 0.00, 0.00, 0.00, 0.00, 0
363444, -28332.82, -25557.81, 0.00, 0.00, 0.00, 0.00, 0.00, 0.00, 0
363445, -28092.32, -25132.97, 0.00, 0.00, 0.00, 0.00, 0.00, 0.00, 0
363446, -28148.76, -25155.26, 0.00, 0.00, 0.00, 0.00, 0.00, 0.00, 0
363447, -28385.26, -25568.45, 0.00, 0.00, 0.00, 0.00, 0.00, 0.00, 0
363448, -28366.46, -25623.44, 0.00, 0.00, 0.00, 0.00, 0.00, 0.00, 0
363449, -28115.70, -25212.88, 0.00, 0.00, 0.00, 0.00, 0.00, 0.00, 0
363450, -28113.17, -25158.94, 0.00, 0.00, 0.00, 0.00, 0.00, 0.00, 0
363451, -28353.50, -25561.81, 0.00, 0.00, 0.00, 0.00, 0.00, 0.00, 0
363452, -28399.54, -25697.89, 0.00, 0.00, 0.00, 0.00, 0.00, 0.00, 0
363453, -28148.89, -25271.15, 0.00, 0.00, 0.00, 0.00, 0.00, 0.00, 0
363454, -28078.71, -25076.02, 0.00, 0.00, 0.00, 0.00, 0.00, 0.00, 0
363455, -28301.20, -25428.19, 0.00, 0.00, 0.00, 0.00, 0.00, 0.00, 0
363456, -28410.90, -25676.07, 0.00, 0.00, 0.00, 0.00, 0.00, 0.00, 0
363457, -28186.20, -25339.19, 0.00, 0.00, 0.00, 0.00, 0.00, 0.00, 0
363458, -28051.71, -25056.10, 0.00, 0.00, 0.00, 0.00, 0.00, 0.00, 0
363459, -28245.50, -25336.13, 0.00, 0.00, 0.00, 0.00, 0.00, 0.00, 0
363460, -28417.67, -25677.66, 0.00, 0.00, 0.00, 0.00, 0.00, 0.00, 0
363461, -28234.48, -25406.09, 0.00, 0.00, 0.00, 0.00, 0.00, 0.00, 0
363462, -28038.74, -25018.24, 0.00, 0.00, 0.00, 0.00, 0.00, 0.00, 0
363463, -28195.14, -25234.43, 0.00, 0.00, 0.00, 0.00, 0.00, 0.00, 0
363464, -28414.72, -25656.16, 0.00, 0.00, 0.00, 0.00, 0.00, 0.00, 0
363465, -28279.02, -25470.17, 0.00, 0.00, 0.00, 0.00, 0.00, 0.00, 0
363466, -28045.34, -25073.96, 0.00, 0.00, 0.00, 0.00, 0.00, 0.00, 0
363467, -28150.84, -25194.82, 0.00, 0.00, 0.00, 0.00, 0.00, 0.00, 0
363468, -28388.37, -25607.81, 0.00, 0.00, 0.00, 0.00, 0.00, 0.00, 0
363469, -28320.06, -25557.68, 0.00, 0.00, 0.00, 0.00, 0.00, 0.00, 0
363470, -28071.91, -25129.26, 0.00, 0.00, 0.00, 0.00, 0.00, 0.00, 0
363471, -28123.90, -25124.63, 0.00, 0.00, 0.00, 0.00, 0.00, 0.00, 0
363472, -28368.43, -25544.51, 0.00, 0.00, 0.00, 0.00, 0.00, 0.00, 0
363473, -28364.12, -25605.38, 0.00, 0.00, 0.00, 0.00, 0.00, 0.00, 0
363474, -28101.93, -25160.49, 0.00, 0.00, 0.00, 0.00, 0.00, 0.00, 0
363475, -28082.53, -25053.18, 0.00, 0.00, 0.00, 0.00, 0.00, 0.00, 0
363476, -28322.07, -25479.00, 0.00, 0.00, 0.00, 0.00, 0.00, 0.00, 0
363477, -28388.97, -25650.62, 0.00, 0.00, 0.00, 0.00, 0.00, 0.00, 0
363478, -28144.13, -25236.50, 0.00, 0.00, 0.00, 0.00, 0.00, 0.00, 0
363479, -28052.60, -25050.22, 0.00, 0.00, 0.00, 0.00, 0.00, 0.00, 0
363480, -28274.51, -25429.29, 0.00, 0.00, 0.00, 0.00, 0.00, 0.00, 0
363481, -28404.02, -25722.25, 0.00, 0.00, 0.00, 0.00, 0.00, 0.00, 0
363482, -28190.44, -25379.29, 0.00, 0.00, 0.00, 0.00, 0.00, 0.00, 0
363483, -28034.94, -25035.63, 0.00, 0.00, 0.00, 0.00, 0.00, 0.00, 0
363484, -28214.18, -25289.05, 0.00, 0.00, 0.00, 0.00, 0.00, 0.00, 0
363485, -28403.32, -25676.10, 0.00, 0.00, 0.00, 0.00, 0.00, 0.00, 0
363486, -28240.56, -25436.87, 0.00, 0.00, 0.00, 0.00, 0.00, 0.00, 0
363487, -28038.74, -25017.95, 0.00, 0.00, 0.00, 0.00, 0.00, 0.00, 0
363488, -28182.31, -25212.03, 0.00, 0.00, 0.00, 0.00, 0.00, 0.00, 0
363489, -28404.35, -25632.73, 0.00, 0.00, 0.00, 0.00, 0.00, 0.00, 0
363490, -28287.99, -25452.62, 0.00, 0.00, 0.00, 0.00, 0.00, 0.00, 0
363491, -28052.15, -24990.32, 0.00, 0.00, 0.00, 0.00, 0.00, 0.00, 0
363492, -28143.84, -25120.10, 0.00, 0.00, 0.00, 0.00, 0.00, 0.00, 0
363493, -28383.18, -25608.75, 0.00, 0.00, 0.00, 0.00, 0.00, 0.00, 0
363494, -28330.59, -25617.85, 0.00, 0.00, 0.00, 0.00, 0.00, 0.00, 0
363495, -28080.07, -25141.80, 0.00, 0.00, 0.00, 0.00, 0.00, 0.00, 0
363496, -28101.33, -25092.60, 0.00, 0.00, 0.00, 0.00, 0.00, 0.00, 0
363497, -28338.41, -25528.73, 0.00, 0.00, 0.00, 0.00, 0.00, 0.00, 0
363498, -28355.33, -25613.69, 0.00, 0.00, 0.00, 0.00, 0.00, 0.00, 0
363499, -28102.89, -25163.01, 0.00, 0.00, 0.00, 0.00, 0.00, 0.00, 0
363500, -28066.21, -25051.43, 0.00, 0.00, 0.00, 0.00, 0.00, 0.00, 0
363501, -28300.66, -25475.73, 0.00, 0.00, 0.00, 0.00, 0.00, 0.00, 0
363502, -28384.61, -25683.00, 0.00, 0.00, 0.00, 0.00, 0.00, 0.00, 0
363503, -28145.18, -25271.87, 0.00, 0.00, 0.00, 0.00, 0.00, 0.00, 0
363504, -28038.07, -25025.24, 0.00, 0.00, 0.00, 0.00, 0.00, 0.00, 0
363505, -28244.67, -25354.97, 0.00, 0.00, 0.00, 0.00, 0.00, 0.00, 0
363506, -28389.06, -25683.18, 0.00, 0.00, 0.00, 0.00, 0.00, 0.00, 0
363507, -28187.31, -25399.22, 0.00, 0.00, 0.00, 0.00, 0.00, 0.00, 0
363508, -28021.29, -25053.49, 0.00, 0.00, 0.00, 0.00, 0.00, 0.00, 0
363509, -28197.31, -25313.64, 0.00, 0.00, 0.00, 0.00, 0.00, 0.00, 0
363510, -28389.89, -25710.09, 0.00, 0.00, 0.00, 0.00, 0.00, 0.00, 0
363511, -28230.25, -25444.96, 0.00, 0.00, 0.00, 0.00, 0.00, 0.00, 0
363512, -28020.57, -24999.29, 0.00, 0.00, 0.00, 0.00, 0.00, 0.00, 0
363513, -28161.01, -25216.72, 0.00, 0.00, 0.00, 0.00, 0.00, 0.00, 0
363514, -28390.00, -25686.36, 0.00, 0.00, 0.00, 0.00, 0.00, 0.00, 0
363515, -28288.21, -25568.96, 0.00, 0.00, 0.00, 0.00, 0.00, 0.00, 0
363516, -28044.06, -25096.43, 0.00, 0.00, 0.00, 0.00, 0.00, 0.00, 0
363517, -28123.14, -25182.08, 0.00, 0.00, 0.00, 0.00, 0.00, 0.00, 0
363518, -28369.77, -25644.47, 0.00, 0.00, 0.00, 0.00, 0.00, 0.00, 0
363519, -28332.09, -25608.44, 0.00, 0.00, 0.00, 0.00, 0.00, 0.00, 0
363520, -28070.35, -25080.47, 0.00, 0.00, 0.00, 0.00, 0.00, 0.00, 0
363521, -28090.02, -25037.15, 0.00, 0.00, 0.00, 0.00, 0.00, 0.00, 0
363522, -28339.35, -25539.37, 0.00, 0.00, 0.00, 0.00, 0.00, 0.00, 0
363523, -28374.35, -25676.86, 0.00, 0.00, 0.00, 0.00, 0.00, 0.00, 0
363524, -28124.60, -25205.66, 0.00, 0.00, 0.00, 0.00, 0.00, 0.00, 0
363525, -28062.21, -25001.39, 0.00, 0.00, 0.00, 0.00, 0.00, 0.00, 0
363526, -28297.22, -25383.09, 0.00, 0.00, 0.00, 0.00, 0.00, 0.00, 0
363527, -28401.13, -25682.40, 0.00, 0.00, 0.00, 0.00, 0.00, 0.00, 0
363528, -28161.68, -25327.28, 0.00, 0.00, 0.00, 0.00, 0.00, 0.00, 0
363529, -28037.78, -25036.12, 0.00, 0.00, 0.00, 0.00, 0.00, 0.00, 0
363530, -28249.21, -25342.65, 0.00, 0.00, 0.00, 0.00, 0.00, 0.00, 0
363531, -28411.44, -25699.95, 0.00, 0.00, 0.00, 0.00, 0.00, 0.00, 0
363532, -28223.93, -25424.19, 0.00, 0.00, 0.00, 0.00, 0.00, 0.00, 0
363533, -28035.05, -25029.35, 0.00, 0.00, 0.00, 0.00, 0.00, 0.00, 0
363534, -28202.18, -25288.70, 0.00, 0.00, 0.00, 0.00, 0.00, 0.00, 0
363535, -28406.61, -25714.07, 0.00, 0.00, 0.00, 0.00, 0.00, 0.00, 0
363536, -28256.22, -25464.69, 0.00, 0.00, 0.00, 0.00, 0.00, 0.00, 0
363537, -28031.12, -24993.32, 0.00, 0.00, 0.00, 0.00, 0.00, 0.00, 0
363538, -28154.41, -25182.41, 0.00, 0.00, 0.00, 0.00, 0.00, 0.00, 0
363539, -28390.85, -25656.00, 0.00, 0.00, 0.00, 0.00, 0.00, 0.00, 0
363540, -28313.42, -25579.69, 0.00, 0.00, 0.00, 0.00, 0.00, 0.00, 0
363541, -28059.17, -25094.66, 0.00, 0.00, 0.00, 0.00, 0.00, 0.00, 0
363542, -28119.30, -25088.42, 0.00, 0.00, 0.00, 0.00, 0.00, 0.00, 0
363543, -28375.85, -25558.79, 0.00, 0.00, 0.00, 0.00, 0.00, 0.00, 0
363544, -28361.59, -25621.27, 0.00, 0.00, 0.00, 0.00, 0.00, 0.00, 0
363545, -28092.68, -25126.15, 0.00, 0.00, 0.00, 0.00, 0.00, 0.00, 0
363546, -28084.52, -25056.39, 0.00, 0.00, 0.00, 0.00, 0.00, 0.00, 0
363547, -28337.79, -25542.39, 0.00, 0.00, 0.00, 0.00, 0.00, 0.00, 0
363548, -28388.10, -25682.31, 0.00, 0.00, 0.00, 0.00, 0.00, 0.00, 0
363549, -28123.88, -25153.69, 0.00, 0.00, 0.00, 0.00, 0.00, 0.00, 0
363550, -28049.79, -24965.04, 0.00, 0.00, 0.00, 0.00, 0.00, 0.00, 0
363551, -28292.44, -25472.67, 0.00, 0.00, 0.00, 0.00, 0.00, 0.00, 0
363552, -28419.55, -25789.82, 0.00, 0.00, 0.00, 0.00, 0.00, 0.00, 0
363553, -28179.47, -25375.80, 0.00, 0.00, 0.00, 0.00, 0.00, 0.00, 0
363554, -28033.09, -25031.81, 0.00, 0.00, 0.00, 0.00, 0.00, 0.00, 0
363555, -28242.52, -25362.52, 0.00, 0.00, 0.00, 0.00, 0.00, 0.00, 0
363556, -28428.87, -25747.89, 0.00, 0.00, 0.00, 0.00, 0.00, 0.00, 0
363557, -28228.55, -25443.01, 0.00, 0.00, 0.00, 0.00, 0.00, 0.00, 0
363558, -28017.60, -25004.05, 0.00, 0.00, 0.00, 0.00, 0.00, 0.00, 0
363559, -28182.91, -25245.58, 0.00, 0.00, 0.00, 0.00, 0.00, 0.00, 0
363560, -28415.35, -25723.33, 0.00, 0.00, 0.00, 0.00, 0.00, 0.00, 0
363561, -28271.74, -25509.98, 0.00, 0.00, 0.00, 0.00, 0.00, 0.00, 0
363562, -28023.70, -25039.21, 0.00, 0.00, 0.00, 0.00, 0.00, 0.00, 0
363563, -28137.69, -25174.81, 0.00, 0.00, 0.00, 0.00, 0.00, 0.00, 0
363564, -28398.40, -25677.79, 0.00, 0.00, 0.00, 0.00, 0.00, 0.00, 0
363565, -28323.12, -25585.86, 0.00, 0.00, 0.00, 0.00, 0.00, 0.00, 0
363566, -28044.96, -25080.18, 0.00, 0.00, 0.00, 0.00, 0.00, 0.00, 0
363567, -28091.83, -25128.34, 0.00, 0.00, 0.00, 0.00, 0.00, 0.00, 0
363568, -28370.78, -25631.79, 0.00, 0.00, 0.00, 0.00, 0.00, 0.00, 0
363569, -28375.20, -25675.16, 0.00, 0.00, 0.00, 0.00, 0.00, 0.00, 0
363570, -28086.04, -25165.25, 0.00, 0.00, 0.00, 0.00, 0.00, 0.00, 0
363571, -28052.69, -25057.22, 0.00, 0.00, 0.00, 0.00, 0.00, 0.00, 0
363572, -28313.49, -25542.43, 0.00, 0.00, 0.00, 0.00, 0.00, 0.00, 0
363573, -28390.89, -25743.69, 0.00, 0.00, 0.00, 0.00, 0.00, 0.00, 0
363574, -28112.17, -25255.55, 0.00, 0.00, 0.00, 0.00, 0.00, 0.00, 0
363575, -27988.90, -24984.49, 0.00, 0.00, 0.00, 0.00, 0.00, 0.00, 0
363576, -28228.67, -25421.22, 0.00, 0.00, 0.00, 0.00, 0.00, 0.00, 0
363577, -28369.64, -25761.03, 0.00, 0.00, 0.00, 0.00, 0.00, 0.00, 0
363578, -28120.44, -25348.93, 0.00, 0.00, 0.00, 0.00, 0.00, 0.00, 0
363579, -27946.61, -25001.70, 0.00, 0.00, 0.00, 0.00, 0.00, 0.00, 0
363580, -28143.95, -25343.19, 0.00, 0.00, 0.00, 0.00, 0.00, 0.00, 0
363581, -28337.85, -25732.02, 0.00, 0.00, 0.00, 0.00, 0.00, 0.00, 0
363582, -28140.89, -25437.42, 0.00, 0.00, 0.00, 0.00, 0.00, 0.00, 0
363583, -27911.25, -25026.33, 0.00, 0.00, 0.00, 0.00, 0.00, 0.00, 0
363584, -28070.97, -25265.54, 0.00, 0.00, 0.00, 0.00, 0.00, 0.00, 0
363585, -28319.30, -25742.48, 0.00, 0.00, 0.00, 0.00, 0.00, 0.00, 0
363586, -28190.29, -25564.45, 0.00, 0.00, 0.00, 0.00, 0.00, 0.00, 0
363587, -27924.46, -25083.22, 0.00, 0.00, 0.00, 0.00, 0.00, 0.00, 0
363588, -28015.09, -25213.42, 0.00, 0.00, 0.00, 0.00, 0.00, 0.00, 0
363589, -28273.48, -25698.34, 0.00, 0.00, 0.00, 0.00, 0.00, 0.00, 0
363590, -28217.20, -25649.90, 0.00, 0.00, 0.00, 0.00, 0.00, 0.00, 0
363591, -27935.90, -25148.51, 0.00, 0.00, 0.00, 0.00, 0.00, 0.00, 0
363592, -27964.49, -25101.10, 0.00, 0.00, 0.00, 0.00, 0.00, 0.00, 0
363593, -28245.72, -25561.30, 0.00, 0.00, 0.00, 0.00, 0.00, 0.00, 0
363594, -28263.98, -25652.02, 0.00, 0.00, 0.00, 0.00, 0.00, 0.00, 0
363595, -27976.27, -25153.80, 0.00, 0.00, 0.00, 0.00, 0.00, 0.00, 0
363596, -27939.88, -24990.86, 0.00, 0.00, 0.00, 0.00, 0.00, 0.00, 0
363597, -28201.87, -25457.50, 0.00, 0.00, 0.00, 0.00, 0.00, 0.00, 0
363598, -28284.03, -25699.65, 0.00, 0.00, 0.00, 0.00, 0.00, 0.00, 0
363599, -28000.77, -25249.92, 0.00, 0.00, 0.00, 0.00, 0.00, 0.00, 0
363600, -27877.59, -24967.03, 0.00, 0.00, 0.00, 0.00, 0.00, 0.00, 0
363601, -28116.13, -25362.57, 0.00, 0.00, 0.00, 0.00, 0.00, 0.00, 0
363602, -28258.57, -25675.31, 0.00, 0.00, 0.00, 0.00, 0.00, 0.00, 0
363603, -28012.05, -25309.75, 0.00, 0.00, 0.00, 0.00, 0.00, 0.00, 0
363604, -27822.94, -24977.13, 0.00, 0.00, 0.00, 0.00, 0.00, 0.00, 0
363605, -28012.17, -25259.39, 0.00, 0.00, 0.00, 0.00, 0.00, 0.00, 0
363606, -28216.57, -25657.52, 0.00, 0.00, 0.00, 0.00, 0.00, 0.00, 0
363607, -28023.30, -25391.18, 0.00, 0.00, 0.00, 0.00, 0.00, 0.00, 0
363608, -27779.11, -24952.93, 0.00, 0.00, 0.00, 0.00, 0.00, 0.00, 0
363609, -27920.48, -25149.53, 0.00, 0.00, 0.00, 0.00, 0.00, 0.00, 0
363610, -28168.49, -25640.47, 0.00, 0.00, 0.00, 0.00, 0.00, 0.00, 0
363611, -28049.92, -25504.93, 0.00, 0.00, 0.00, 0.00, 0.00, 0.00, 0
363612, -27784.49, -25021.08, 0.00, 0.00, 0.00, 0.00, 0.00, 0.00, 0
363613, -27870.93, -25088.13, 0.00, 0.00, 0.00, 0.00, 0.00, 0.00, 0
363614, -28140.55, -25541.76, 0.00, 0.00, 0.00, 0.00, 0.00, 0.00, 0
363615, -28101.08, -25533.38, 0.00, 0.00, 0.00, 0.00, 0.00, 0.00, 0
363616, -27815.27, -25074.28, 0.00, 0.00, 0.00, 0.00, 0.00, 0.00, 0
363617, -27828.52, -25032.43, 0.00, 0.00, 0.00, 0.00, 0.00, 0.00, 0
363618, -28102.15, -25520.39, 0.00, 0.00, 0.00, 0.00, 0.00, 0.00, 0
363619, -28139.71, -25659.76, 0.00, 0.00, 0.00, 0.00, 0.00, 0.00, 0
363620, -27856.55, -25184.31, 0.00, 0.00, 0.00, 0.00, 0.00, 0.00, 0
363621, -27802.46, -25006.71, 0.00, 0.00, 0.00, 0.00, 0.00, 0.00, 0
363622, -28068.16, -25443.21, 0.00, 0.00, 0.00, 0.00, 0.00, 0.00, 0
363623, -28185.75, -25702.76, 0.00, 0.00, 0.00, 0.00, 0.00, 0.00, 0
363624, -27934.43, -25273.59, 0.00, 0.00, 0.00, 0.00, 0.00, 0.00, 0
363625, -27812.50, -24985.03, 0.00, 0.00, 0.00, 0.00, 0.00, 0.00, 0
363626, -28052.64, -25361.05, 0.00, 0.00, 0.00, 0.00, 0.00, 0.00, 0
363627, -28228.89, -25711.52, 0.00, 0.00, 0.00, 0.00, 0.00, 0.00, 0
363628, -28021.24, -25368.02, 0.00, 0.00, 0.00, 0.00, 0.00, 0.00, 0
363629, -27837.55, -24991.39, 0.00, 0.00, 0.00, 0.00, 0.00, 0.00, 0
363630, -28030.27, -25258.63, 0.00, 0.00, 0.00, 0.00, 0.00, 0.00, 0
363631, -28255.55, -25679.09, 0.00, 0.00, 0.00, 0.00, 0.00, 0.00, 0
363632, -28094.82, -25435.59, 0.00, 0.00, 0.00, 0.00, 0.00, 0.00, 0
363633, -27859.97, -25004.31, 0.00, 0.00, 0.00, 0.00, 0.00, 0.00, 0
363634, -27999.61, -25192.23, 0.00, 0.00, 0.00, 0.00, 0.00, 0.00, 0
363635, -28258.86, -25676.34, 0.00, 0.00, 0.00, 0.00, 0.00, 0.00, 0
363636, -28171.15, -25572.03, 0.00, 0.00, 0.00, 0.00, 0.00, 0.00, 0
363637, -27909.37, -25055.54, 0.00, 0.00, 0.00, 0.00, 0.00, 0.00, 0
363638, -27984.21, -25101.88, 0.00, 0.00, 0.00, 0.00, 0.00, 0.00, 0
363639, -28254.39, -25602.20, 0.00, 0.00, 0.00, 0.00, 0.00, 0.00, 0
363640, -28232.42, -25612.35, 0.00, 0.00, 0.00, 0.00, 0.00, 0.00, 0
363641, -27960.33, -25113.66, 0.00, 0.00, 0.00, 0.00, 0.00, 0.00, 0
363642, -27963.06, -25048.79, 0.00, 0.00, 0.00, 0.00, 0.00, 0.00, 0
363643, -28223.79, -25511.47, 0.00, 0.00, 0.00, 0.00, 0.00, 0.00, 0
363644, -28277.62, -25678.09, 0.00, 0.00, 0.00, 0.00, 0.00, 0.00, 0
363645, -28011.21, -25215.58, 0.00, 0.00, 0.00, 0.00, 0.00, 0.00, 0
363646, -27939.84, -25013.37, 0.00, 0.00, 0.00, 0.00, 0.00, 0.00, 0
363647, -28188.19, -25430.90, 0.00, 0.00, 0.00, 0.00, 0.00, 0.00, 0
363648, -28311.75, -25701.29, 0.00, 0.00, 0.00, 0.00, 0.00, 0.00, 0
363649, -28071.73, -25260.09, 0.00, 0.00, 0.00, 0.00, 0.00, 0.00, 0
363650, -27934.40, -24910.50, 0.00, 0.00, 0.00, 0.00, 0.00, 0.00, 0
363651, -28150.17, -25281.63, 0.00, 0.00, 0.00, 0.00, 0.00, 0.00, 0
363652, -28335.10, -25712.02, 0.00, 0.00, 0.00, 0.00, 0.00, 0.00, 0
363653, -28140.15, -25412.81, 0.00, 0.00, 0.00, 0.00, 0.00, 0.00, 0
363654, -27944.69, -24997.30, 0.00, 0.00, 0.00, 0.00, 0.00, 0.00, 0
363655, -28112.39, -25257.89, 0.00, 0.00, 0.00, 0.00, 0.00, 0.00, 0
363656, -28333.14, -25705.11, 0.00, 0.00, 0.00, 0.00, 0.00, 0.00, 0
363657, -28191.92, -25480.12, 0.00, 0.00, 0.00, 0.00, 0.00, 0.00, 0
363658, -27956.31, -24992.40, 0.00, 0.00, 0.00, 0.00, 0.00, 0.00, 0
363659, -28067.22, -25141.49, 0.00, 0.00, 0.00, 0.00, 0.00, 0.00, 0
363660, -28313.45, -25645.90, 0.00, 0.00, 0.00, 0.00, 0.00, 0.00, 0
363661, -28235.95, -25577.86, 0.00, 0.00, 0.00, 0.00, 0.00, 0.00, 0
363662, -27969.38, -25075.91, 0.00, 0.00, 0.00, 0.00, 0.00, 0.00, 0
363663, -28020.59, -25095.78, 0.00, 0.00, 0.00, 0.00, 0.00, 0.00, 0
363664, -28275.04, -25565.75, 0.00, 0.00, 0.00, 0.00, 0.00, 0.00, 0
363665, -28270.02, -25611.59, 0.00, 0.00, 0.00, 0.00, 0.00, 0.00, 0
363666, -28002.22, -25125.88, 0.00, 0.00, 0.00, 0.00, 0.00, 0.00, 0
363667, -27988.38, -25045.69, 0.00, 0.00, 0.00, 0.00, 0.00, 0.00, 0
363668, -28239.28, -25504.81, 0.00, 0.00, 0.00, 0.00, 0.00, 0.00, 0
363669, -28300.21, -25658.04, 0.00, 0.00, 0.00, 0.00, 0.00, 0.00, 0
363670, -28043.12, -25215.38, 0.00, 0.00, 0.00, 0.00, 0.00, 0.00, 0
363671, -27961.34, -25016.05, 0.00, 0.00, 0.00, 0.00, 0.00, 0.00, 0
363672, -28192.05, -25434.29, 0.00, 0.00, 0.00, 0.00, 0.00, 0.00, 0
363673, -28322.63, -25715.81, 0.00, 0.00, 0.00, 0.00, 0.00, 0.00, 0
363674, -28096.70, -25326.83, 0.00, 0.00, 0.00, 0.00, 0.00, 0.00, 0
363675, -27949.22, -25002.82, 0.00, 0.00, 0.00, 0.00, 0.00, 0.00, 0
363676, -28145.18, -25306.44, 0.00, 0.00, 0.00, 0.00, 0.00, 0.00, 0
363677, -28328.13, -25673.26, 0.00, 0.00, 0.00, 0.00, 0.00, 0.00, 0
363678, -28146.93, -25375.80, 0.00, 0.00, 0.00, 0.00, 0.00, 0.00, 0
363679, -27944.31, -24972.96, 0.00, 0.00, 0.00, 0.00, 0.00, 0.00, 0
363680, -28098.33, -25212.05, 0.00, 0.00, 0.00, 0.00, 0.00, 0.00, 0
363681, -28326.68, -25652.96, 0.00, 0.00, 0.00, 0.00, 0.00, 0.00, 0
363682, -28199.47, -25469.05, 0.00, 0.00, 0.00, 0.00, 0.00, 0.00, 0
363683, -27956.13, -25010.42, 0.00, 0.00, 0.00, 0.00, 0.00, 0.00, 0
363684, -28054.93, -25128.30, 0.00, 0.00, 0.00, 0.00, 0.00, 0.00, 0
363685, -28299.07, -25586.31, 0.00, 0.00, 0.00, 0.00, 0.00, 0.00, 0
363686, -28238.57, -25532.82, 0.00, 0.00, 0.00, 0.00, 0.00, 0.00, 0
363687, -27979.06, -25032.50, 0.00, 0.00, 0.00, 0.00, 0.00, 0.00, 0
363688, -28017.73, -25047.54, 0.00, 0.00, 0.00, 0.00, 0.00, 0.00, 0
363689, -28270.17, -25539.95, 0.00, 0.00, 0.00, 0.00, 0.00, 0.00, 0
363690, -28280.32, -25622.85, 0.00, 0.00, 0.00, 0.00, 0.00, 0.00, 0
363691, -28017.15, -25146.18, 0.00, 0.00, 0.00, 0.00, 0.00, 0.00, 0
363692, -27986.86, -25008.96, 0.00, 0.00, 0.00, 0.00, 0.00, 0.00, 0
363693, -28227.50, -25442.70, 0.00, 0.00, 0.00, 0.00, 0.00, 0.00, 0
363694, -28306.72, -25639.06, 0.00, 0.00, 0.00, 0.00, 0.00, 0.00, 0
363695, -28059.39, -25206.42, 0.00, 0.00, 0.00, 0.00, 0.00, 0.00, 0
363696, -27960.09, -24975.59, 0.00, 0.00, 0.00, 0.00, 0.00, 0.00, 0
363697, -28185.77, -25350.70, 0.00, 0.00, 0.00, 0.00, 0.00, 0.00, 0
363698, -28321.27, -25659.38, 0.00, 0.00, 0.00, 0.00, 0.00, 0.00, 0
363699, -28108.64, -25323.01, 0.00, 0.00, 0.00, 0.00, 0.00, 0.00, 0
363700, -27954.05, -25002.15, 0.00, 0.00, 0.00, 0.00, 0.00, 0.00, 0
363701, -28141.38, -25288.54, 0.00, 0.00, 0.00, 0.00, 0.00, 0.00, 0
363702, -28329.58, -25664.47, 0.00, 0.00, 0.00, 0.00, 0.00, 0.00, 0
363703, -28162.66, -25421.82, 0.00, 0.00, 0.00, 0.00, 0.00, 0.00, 0
363704, -27950.41, -25026.26, 0.00, 0.00, 0.00, 0.00, 0.00, 0.00, 0
363705, -28098.51, -25208.72, 0.00, 0.00, 0.00, 0.00, 0.00, 0.00, 0
363706, -28319.82, -25631.77, 0.00, 0.00, 0.00, 0.00, 0.00, 0.00, 0
363707, -28204.08, -25486.51, 0.00, 0.00, 0.00, 0.00, 0.00, 0.00, 0
363708, -27966.08, -25041.75, 0.00, 0.00, 0.00, 0.00, 0.00, 0.00, 0
363709, -28058.99, -25141.93, 0.00, 0.00, 0.00, 0.00, 0.00, 0.00, 0
363710, -28303.90, -25604.91, 0.00, 0.00, 0.00, 0.00, 0.00, 0.00, 0
363711, -28253.36, -25583.38, 0.00, 0.00, 0.00, 0.00, 0.00, 0.00, 0
363712, -27990.13, -25112.70, 0.00, 0.00, 0.00, 0.00, 0.00, 0.00, 0
363713, -28014.02, -25062.65, 0.00, 0.00, 0.00, 0.00, 0.00, 0.00, 0
363714, -28258.64, -25475.04, 0.00, 0.00, 0.00, 0.00, 0.00, 0.00, 0
363715, -28285.57, -25586.35, 0.00, 0.00, 0.00, 0.00, 0.00, 0.00, 0
363716, -28040.49, -25182.46, 0.00, 0.00, 0.00, 0.00, 0.00, 0.00, 0
363717, -27997.08, -25049.02, 0.00, 0.00, 0.00, 0.00, 0.00, 0.00, 0
363718, -28222.05, -25442.74, 0.00, 0.00, 0.00, 0.00, 0.00, 0.00, 0
363719, -28314.34, -25650.23, 0.00, 0.00, 0.00, 0.00, 0.00, 0.00, 0
363720, -28082.69, -25251.48, 0.00, 0.00, 0.00, 0.00, 0.00, 0.00, 0
363721, -27970.32, -24993.14, 0.00, 0.00, 0.00, 0.00, 0.00, 0.00, 0
363722, -28176.59, -25309.48, 0.00, 0.00, 0.00, 0.00, 0.00, 0.00, 0
363723, -28326.01, -25618.61, 0.00, 0.00, 0.00, 0.00, 0.00, 0.00, 0
363724, -28127.26, -25339.93, 0.00, 0.00, 0.00, 0.00, 0.00, 0.00, 0
363725, -27961.96, -25017.57, 0.00, 0.00, 0.00, 0.00, 0.00, 0.00, 0
363726, -28143.62, -25288.99, 0.00, 0.00, 0.00, 0.00, 0.00, 0.00, 0
363727, -28341.65, -25668.92, 0.00, 0.00, 0.00, 0.00, 0.00, 0.00, 0
363728, -28179.47, -25424.15, 0.00, 0.00, 0.00, 0.00, 0.00, 0.00, 0
363729, -27958.14, -25002.35, 0.00, 0.00, 0.00, 0.00, 0.00, 0.00, 0
363730, -28090.91, -25174.25, 0.00, 0.00, 0.00, 0.00, 0.00, 0.00, 0
363731, -28322.21, -25621.47, 0.00, 0.00, 0.00, 0.00, 0.00, 0.00, 0
363732, -28221.24, -25501.69, 0.00, 0.00, 0.00, 0.00, 0.00, 0.00, 0
363733, -27969.38, -25034.82, 0.00, 0.00, 0.00, 0.00, 0.00, 0.00, 0
363734, -28044.87, -25097.77, 0.00, 0.00, 0.00, 0.00, 0.00, 0.00, 0
363735, -28293.89, -25575.76, 0.00, 0.00, 0.00, 0.00, 0.00, 0.00, 0
363736, -28267.71, -25582.44, 0.00, 0.00, 0.00, 0.00, 0.00, 0.00, 0
363737, -28006.94, -25101.10, 0.00, 0.00, 0.00, 0.00, 0.00, 0.00, 0
363738, -28019.61, -25059.54, 0.00, 0.00, 0.00, 0.00, 0.00, 0.00, 0
363739, -28266.93, -25510.29, 0.00, 0.00, 0.00, 0.00, 0.00, 0.00, 0
363740, -28306.58, -25632.35, 0.00, 0.00, 0.00, 0.00, 0.00, 0.00, 0
363741, -28052.64, -25172.31, 0.00, 0.00, 0.00, 0.00, 0.00, 0.00, 0
363742, -27988.72, -24983.33, 0.00, 0.00, 0.00, 0.00, 0.00, 0.00, 0
363743, -28221.51, -25400.88, 0.00, 0.00, 0.00, 0.00, 0.00, 0.00, 0
363744, -28329.96, -25668.54, 0.00, 0.00, 0.00, 0.00, 0.00, 0.00, 0
363745, -28097.19, -25264.98, 0.00, 0.00, 0.00, 0.00, 0.00, 0.00, 0
363746, -27967.84, -24968.35, 0.00, 0.00, 0.00, 0.00, 0.00, 0.00, 0
363747, -28173.68, -25316.70, 0.00, 0.00, 0.00, 0.00, 0.00, 0.00, 0
363748, -28336.33, -25665.90, 0.00, 0.00, 0.00, 0.00, 0.00, 0.00, 0
363749, -28138.23, -25348.87, 0.00, 0.00, 0.00, 0.00, 0.00, 0.00, 0
363750, -27955.97, -24978.05, 0.00, 0.00, 0.00, 0.00, 0.00, 0.00, 0
363751, -28127.39, -25225.73, 0.00, 0.00, 0.00, 0.00, 0.00, 0.00, 0
363752, -28338.64, -25640.85, 0.00, 0.00, 0.00, 0.00, 0.00, 0.00, 0
363753, -28193.06, -25430.67, 0.00, 0.00, 0.00, 0.00, 0.00, 0.00, 0
363754, -27973.59, -24995.15, 0.00, 0.00, 0.00, 0.00, 0.00, 0.00, 0
363755, -28088.14, -25141.51, 0.00, 0.00, 0.00, 0.00, 0.00, 0.00, 0
363756, -28314.99, -25588.86, 0.00, 0.00, 0.00, 0.00, 0.00, 0.00, 0
363757, -28234.50, -25492.99, 0.00, 0.00, 0.00, 0.00, 0.00, 0.00, 0
363758, -27987.22, -25024.70, 0.00, 0.00, 0.00, 0.00, 0.00, 0.00, 0
363759, -28038.83, -25062.05, 0.00, 0.00, 0.00, 0.00, 0.00, 0.00, 0
363760, -28284.12, -25521.24, 0.00, 0.00, 0.00, 0.00, 0.00, 0.00, 0
363761, -28272.86, -25561.28, 0.00, 0.00, 0.00, 0.00, 0.00, 0.00, 0
363762, -28020.64, -25091.38, 0.00, 0.00, 0.00, 0.00, 0.00, 0.00, 0
363763, -28009.44, -25003.62, 0.00, 0.00, 0.00, 0.00, 0.00, 0.00, 0
363764, -28247.20, -25444.58, 0.00, 0.00, 0.00, 0.00, 0.00, 0.00, 0
363765, -28308.26, -25602.56, 0.00, 0.00, 0.00, 0.00, 0.00, 0.00, 0
363766, -28061.47, -25158.65, 0.00, 0.00, 0.00, 0.00, 0.00, 0.00, 0
363767, -27984.54, -24971.88, 0.00, 0.00, 0.00, 0.00, 0.00, 0.00, 0
363768, -28204.46, -25396.36, 0.00, 0.00, 0.00, 0.00, 0.00, 0.00, 0
363769, -28324.78, -25679.22, 0.00, 0.00, 0.00, 0.00, 0.00, 0.00, 0
363770, -28107.74, -25279.08, 0.00, 0.00, 0.00, 0.00, 0.00, 0.00, 0
363771, -27970.64, -24963.23, 0.00, 0.00, 0.00, 0.00, 0.00, 0.00, 0
363772, -28162.66, -25291.24, 0.00, 0.00, 0.00, 0.00, 0.00, 0.00, 0
363773, -28333.94, -25642.61, 0.00, 0.00, 0.00, 0.00, 0.00, 0.00, 0
363774, -28157.59, -25335.34, 0.00, 0.00, 0.00, 0.00, 0.00, 0.00, 0
363775, -27967.26, -24952.06, 0.00, 0.00, 0.00, 0.00, 0.00, 0.00, 0
363776, -28114.60, -25193.30, 0.00, 0.00, 0.00, 0.00, 0.00, 0.00, 0
363777, -28323.66, -25632.58, 0.00, 0.00, 0.00, 0.00, 0.00, 0.00, 0
363778, -28199.16, -25448.35, 0.00, 0.00, 0.00, 0.00, 0.00, 0.00, 0
363779, -27973.05, -24973.98, 0.00, 0.00, 0.00, 0.00, 0.00, 0.00, 0
363780, -28070.71, -25098.86, 0.00, 0.00, 0.00, 0.00, 0.00, 0.00, 0
363781, -28297.15, -25582.60, 0.00, 0.00, 0.00, 0.00, 0.00, 0.00, 0
363782, -28237.43, -25506.11, 0.00, 0.00, 0.00, 0.00, 0.00, 0.00, 0
363783, -27997.21, -25001.52, 0.00, 0.00, 0.00, 0.00, 0.00, 0.00, 0
363784, -28035.55, -25056.35, 0.00, 0.00, 0.00, 0.00, 0.00, 0.00, 0
363785, -28271.67, -25565.50, 0.00, 0.00, 0.00, 0.00, 0.00, 0.00, 0
363786, -28280.70, -25617.51, 0.00, 0.00, 0.00, 0.00, 0.00, 0.00, 0
363787, -28035.28, -25100.38, 0.00, 0.00, 0.00, 0.00, 0.00, 0.00, 0
363788, -28006.71, -24962.18, 0.00, 0.00, 0.00, 0.00, 0.00, 0.00, 0
363789, -28232.35, -25432.69, 0.00, 0.00, 0.00, 0.00, 0.00, 0.00, 0
363790, -28307.59, -25672.45, 0.00, 0.00, 0.00, 0.00, 0.00, 0.00, 0
363791, -28081.19, -25244.57, 0.00, 0.00, 0.00, 0.00, 0.00, 0.00, 0
363792, -27985.52, -25003.80, 0.00, 0.00, 0.00, 0.00, 0.00, 0.00, 0
363793, -28189.95, -25381.90, 0.00, 0.00, 0.00, 0.00, 0.00, 0.00, 0
363794, -28321.40, -25677.59, 0.00, 0.00, 0.00, 0.00, 0.00, 0.00, 0
363795, -28120.79, -25307.74, 0.00, 0.00, 0.00, 0.00, 0.00, 0.00, 0
363796, -27973.41, -24974.38, 0.00, 0.00, 0.00, 0.00, 0.00, 0.00, 0
363797, -28146.21, -25267.73, 0.00, 0.00, 0.00, 0.00, 0.00, 0.00, 0
363798, -28323.59, -25645.99, 0.00, 0.00, 0.00, 0.00, 0.00, 0.00, 0
363799, -28162.50, -25371.80, 0.00, 0.00, 0.00, 0.00, 0.00, 0.00, 0
363800, -27968.60, -24965.42, 0.00, 0.00, 0.00, 0.00, 0.00, 0.00, 0
363801, -28100.03, -25177.27, 0.00, 0.00, 0.00, 0.00, 0.00, 0.00, 0
363802, -28304.79, -25621.83, 0.00, 0.00, 0.00, 0.00, 0.00, 0.00, 0
363803, -28204.86, -25480.38, 0.00, 0.00, 0.00, 0.00, 0.00, 0.00, 0
363804, -27983.51, -25021.30, 0.00, 0.00, 0.00, 0.00, 0.00, 0.00, 0
363805, -28057.00, -25111.22, 0.00, 0.00, 0.00, 0.00, 0.00, 0.00, 0
363806, -28285.26, -25588.97, 0.00, 0.00, 0.00, 0.00, 0.00, 0.00, 0
363807, -28252.04, -25564.36, 0.00, 0.00, 0.00, 0.00, 0.00, 0.00, 0
363808, -28017.20, -25078.61, 0.00, 0.00, 0.00, 0.00, 0.00, 0.00, 0
363809, -28030.12, -25027.11, 0.00, 0.00, 0.00, 0.00, 0.00, 0.00, 0
363810, -28254.32, -25489.79, 0.00, 0.00, 0.00, 0.00, 0.00, 0.00, 0
363811, -28282.82, -25610.81, 0.00, 0.00, 0.00, 0.00, 0.00, 0.00, 0
363812, -28053.74, -25135.41, 0.00, 0.00, 0.00, 0.00, 0.00, 0.00, 0
363813, -28008.50, -24999.33, 0.00, 0.00, 0.00, 0.00, 0.00, 0.00, 0
363814, -28227.93, -25445.49, 0.00, 0.00, 0.00, 0.00, 0.00, 0.00, 0
363815, -28313.11, -25657.25, 0.00, 0.00, 0.00, 0.00, 0.00, 0.00, 0
363816, -28097.10, -25229.75, 0.00, 0.00, 0.00, 0.00, 0.00, 0.00, 0
363817, -27990.26, -24966.63, 0.00, 0.00, 0.00, 0.00, 0.00, 0.00, 0
363818, -28182.42, -25334.52, 0.00, 0.00, 0.00, 0.00, 0.00, 0.00, 0
363819, -28320.53, -25666.19, 0.00, 0.00, 0.00, 0.00, 0.00, 0.00, 0
363820, -28134.01, -25323.68, 0.00, 0.00, 0.00, 0.00, 0.00, 0.00, 0
363821, -27978.10, -24977.94, 0.00, 0.00, 0.00, 0.00, 0.00, 0.00, 0
363822, -28134.52, -25263.35, 0.00, 0.00, 0.00, 0.00, 0.00, 0.00, 0
363823, -28315.79, -25649.27, 0.00, 0.00, 0.00, 0.00, 0.00, 0.00, 0
363824, -28179.89, -25413.08, 0.00, 0.00, 0.00, 0.00, 0.00, 0.00, 0
363825, -27980.72, -24996.27, 0.00, 0.00, 0.00, 0.00, 0.00, 0.00, 0
363826, -28091.65, -25176.67, 0.00, 0.00, 0.00, 0.00, 0.00, 0.00, 0
363827, -28300.88, -25643.84, 0.00, 0.00, 0.00, 0.00, 0.00, 0.00, 0
363828, -28217.00, -25520.06, 0.00, 0.00, 0.00, 0.00, 0.00, 0.00, 0
363829, -27995.02, -25035.41, 0.00, 0.00, 0.00, 0.00, 0.00, 0.00, 0
363830, -28052.24, -25094.62, 0.00, 0.00, 0.00, 0.00, 0.00, 0.00, 0
363831, -28278.26, -25568.03, 0.00, 0.00, 0.00, 0.00, 0.00, 0.00, 0
363832, -28262.15, -25587.70, 0.00, 0.00, 0.00, 0.00, 0.00, 0.00, 0
363833, -28025.24, -25121.73, 0.00, 0.00, 0.00, 0.00, 0.00, 0.00, 0
363834, -28022.94, -25070.21, 0.00, 0.00, 0.00, 0.00, 0.00, 0.00, 0
363835, -28241.65, -25512.04, 0.00, 0.00, 0.00, 0.00, 0.00, 0.00, 0
363836, -28281.97, -25626.05, 0.00, 0.00, 0.00, 0.00, 0.00, 0.00, 0
363837, -28057.96, -25163.84, 0.00, 0.00, 0.00, 0.00, 0.00, 0.00, 0
363838, -27996.27, -25000.00, 0.00, 0.00, 0.00, 0.00, 0.00, 0.00, 0
363839, -28206.56, -25436.89, 0.00, 0.00, 0.00, 0.00, 0.00, 0.00, 0
363840, -28305.18, -25673.41, 0.00, 0.00, 0.00, 0.00, 0.00, 0.00, 0
363841, -28097.51, -25261.14, 0.00, 0.00, 0.00, 0.00, 0.00, 0.00, 0
363842, -27976.27, -24982.68, 0.00, 0.00, 0.00, 0.00, 0.00, 0.00, 0
363843, -28160.09, -25327.14, 0.00, 0.00, 0.00, 0.00, 0.00, 0.00, 0
363844, -28316.78, -25676.43, 0.00, 0.00, 0.00, 0.00, 0.00, 0.00, 0
363845, -28147.97, -25354.48, 0.00, 0.00, 0.00, 0.00, 0.00, 0.00, 0
363846, -27980.63, -24962.36, 0.00, 0.00, 0.00, 0.00, 0.00, 0.00, 0
363847, -28123.28, -25217.75, 0.00, 0.00, 0.00, 0.00, 0.00, 0.00, 0
363848, -28316.26, -25666.73, 0.00, 0.00, 0.00, 0.00, 0.00, 0.00, 0
363849, -28193.93, -25454.19, 0.00, 0.00, 0.00, 0.00, 0.00, 0.00, 0
363850, -27989.10, -24989.90, 0.00, 0.00, 0.00, 0.00, 0.00, 0.00, 0
363851, -28084.92, -25139.83, 0.00, 0.00, 0.00, 0.00, 0.00, 0.00, 0
363852, -28294.83, -25618.36, 0.00, 0.00, 0.00, 0.00, 0.00, 0.00, 0
363853, -28227.10, -25519.66, 0.00, 0.00, 0.00, 0.00, 0.00, 0.00, 0
363854, -28008.23, -25058.67, 0.00, 0.00, 0.00, 0.00, 0.00, 0.00, 0
363855, -28062.30, -25126.51, 0.00, 0.00, 0.00, 0.00, 0.00, 0.00, 0
363856, -28292.72, -25585.62, 0.00, 0.00, 0.00, 0.00, 0.00, 0.00, 0
363857, -28277.28, -25612.13, 0.00, 0.00, 0.00, 0.00, 0.00, 0.00, 0
363858, -28031.59, -25117.91, 0.00, 0.00, 0.00, 0.00, 0.00, 0.00, 0
363859, -28011.74, -25026.42, 0.00, 0.00, 0.00, 0.00, 0.00, 0.00, 0
363860, -28229.94, -25493.37, 0.00, 0.00, 0.00, 0.00, 0.00, 0.00, 0
363861, -28289.62, -25682.18, 0.00, 0.00, 0.00, 0.00, 0.00, 0.00, 0
363862, -28064.71, -25224.75, 0.00, 0.00, 0.00, 0.00, 0.00, 0.00, 0
363863, -27990.89, -25004.20, 0.00, 0.00, 0.00, 0.00, 0.00, 0.00, 0
363864, -28195.67, -25416.12, 0.00, 0.00, 0.00, 0.00, 0.00, 0.00, 0
363865, -28306.45, -25682.38, 0.00, 0.00, 0.00, 0.00, 0.00, 0.00, 0
363866, -28105.78, -25265.20, 0.00, 0.00, 0.00, 0.00, 0.00, 0.00, 0
363867, -27975.11, -24939.92, 0.00, 0.00, 0.00, 0.00, 0.00, 0.00, 0
363868, -28152.96, -25296.43, 0.00, 0.00, 0.00, 0.00, 0.00, 0.00, 0
363869, -28312.89, -25676.03, 0.00, 0.00, 0.00, 0.00, 0.00, 0.00, 0
363870, -28151.53, -25389.26, 0.00, 0.00, 0.00, 0.00, 0.00, 0.00, 0
363871, -27974.84, -24994.26, 0.00, 0.00, 0.00, 0.00, 0.00, 0.00, 0
363872, -28112.15, -25221.69, 0.00, 0.00, 0.00, 0.00, 0.00, 0.00, 0
363873, -28308.46, -25662.15, 0.00, 0.00, 0.00, 0.00, 0.00, 0.00, 0
363874, -28196.50, -25465.28, 0.00, 0.00, 0.00, 0.00, 0.00, 0.00, 0
363875, -27979.00, -24972.20, 0.00, 0.00, 0.00, 0.00, 0.00, 0.00, 0
363876, -28067.08, -25113.17, 0.00, 0.00, 0.00, 0.00, 0.00, 0.00, 0
363877, -28284.01, -25629.34, 0.00, 0.00, 0.00, 0.00, 0.00, 0.00, 0
363878, -28227.14, -25547.24, 0.00, 0.00, 0.00, 0.00, 0.00, 0.00, 0
363879, -27992.92, -25040.41, 0.00, 0.00, 0.00, 0.00, 0.00, 0.00, 0
363880, -28026.16, -25058.07, 0.00, 0.00, 0.00, 0.00, 0.00, 0.00, 0
363881, -28251.40, -25521.31, 0.00, 0.00, 0.00, 0.00, 0.00, 0.00, 0
363882, -28262.19, -25615.79, 0.00, 0.00, 0.00, 0.00, 0.00, 0.00, 0
363883, -28036.46, -25152.60, 0.00, 0.00, 0.00, 0.00, 0.00, 0.00, 0
363884, -28006.40, -25026.96, 0.00, 0.00, 0.00, 0.00, 0.00, 0.00, 0
363885, -28216.95, -25468.87, 0.00, 0.00, 0.00, 0.00, 0.00, 0.00, 0
363886, -28287.83, -25646.37, 0.00, 0.00, 0.00, 0.00, 0.00, 0.00, 0
363887, -28071.53, -25200.54, 0.00, 0.00, 0.00, 0.00, 0.00, 0.00, 0
363888, -27987.02, -24977.76, 0.00, 0.00, 0.00, 0.00, 0.00, 0.00, 0
363889, -28181.21, -25371.20, 0.00, 0.00, 0.00, 0.00, 0.00, 0.00, 0
363890, -28306.11, -25679.83, 0.00, 0.00, 0.00, 0.00, 0.00, 0.00, 0
363891, -28122.67, -25305.44, 0.00, 0.00, 0.00, 0.00, 0.00, 0.00, 0
363892, -27978.91, -24964.13, 0.00, 0.00, 0.00, 0.00, 0.00, 0.00, 0
363893, -28139.08, -25277.63, 0.00, 0.00, 0.00, 0.00, 0.00, 0.00, 0
363894, -28306.25, -25668.90, 0.00, 0.00, 0.00, 0.00, 0.00, 0.00, 0
363895, -28160.43, -25388.09, 0.00, 0.00, 0.00, 0.00, 0.00, 0.00, 0
363896, -27983.02, -24952.12, 0.00, 0.00, 0.00, 0.00, 0.00, 0.00, 0
363897, -28102.20, -25141.29, 0.00, 0.00, 0.00, 0.00, 0.00, 0.00, 0
363898, -28301.35, -25616.60, 0.00, 0.00, 0.00, 0.00, 0.00, 0.00, 0
363899, -28204.53, -25471.09, 0.00, 0.00, 0.00, 0.00, 0.00, 0.00, 0
363900, -27994.22, -25022.04, 0.00, 0.00, 0.00, 0.00, 0.00, 0.00, 0
363901, -28065.65, -25130.33, 0.00, 0.00, 0.00, 0.00, 0.00, 0.00, 0
363902, -28274.13, -25592.61, 0.00, 0.00, 0.00, 0.00, 0.00, 0.00, 0
363903, -28235.95, -25563.78, 0.00, 0.00, 0.00, 0.00, 0.00, 0.00, 0
363904, -28014.20, -25078.46, 0.00, 0.00, 0.00, 0.00, 0.00, 0.00, 0
363905, -28028.13, -25042.85, 0.00, 0.00, 0.00, 0.00, 0.00, 0.00, 0
363906, -28236.82, -25515.68, 0.00, 0.00, 0.00, 0.00, 0.00, 0.00, 0
363907, -28254.55, -25598.02, 0.00, 0.00, 0.00, 0.00, 0.00, 0.00, 0
363908, -28036.40, -25133.69, 0.00, 0.00, 0.00, 0.00, 0.00, 0.00, 0
363909, -27991.24, -24994.93, 0.00, 0.00, 0.00, 0.00, 0.00, 0.00, 0
363910, -28195.54, -25424.13, 0.00, 0.00, 0.00, 0.00, 0.00, 0.00, 0
363911, -28280.79, -25647.64, 0.00, 0.00, 0.00, 0.00, 0.00, 0.00, 0
363912, -28081.37, -25213.77, 0.00, 0.00, 0.00, 0.00, 0.00, 0.00, 0
363913, -27979.15, -24936.54, 0.00, 0.00, 0.00, 0.00, 0.00, 0.00, 0
363914, -28159.49, -25314.22, 0.00, 0.00, 0.00, 0.00, 0.00, 0.00, 0
363915, -28296.82, -25668.54, 0.00, 0.00, 0.00, 0.00, 0.00, 0.00, 0
363916, -28126.12, -25318.36, 0.00, 0.00, 0.00, 0.00, 0.00, 0.00, 0
363917, -27976.69, -24943.52, 0.00, 0.00, 0.00, 0.00, 0.00, 0.00, 0
363918, -28122.81, -25230.07, 0.00, 0.00, 0.00, 0.00, 0.00, 0.00, 0
363919, -28292.77, -25651.33, 0.00, 0.00, 0.00, 0.00, 0.00, 0.00, 0
363920, -28170.95, -25414.40, 0.00, 0.00, 0.00, 0.00, 0.00, 0.00, 0
363921, -27984.12, -24973.92, 0.00, 0.00, 0.00, 0.00, 0.00, 0.00, 0
363922, -28083.09, -25138.13, 0.00, 0.00, 0.00, 0.00, 0.00, 0.00, 0
363923, -28280.72, -25627.32, 0.00, 0.00, 0.00, 0.00, 0.00, 0.00, 0
363924, -28210.72, -25508.95, 0.00, 0.00, 0.00, 0.00, 0.00, 0.00, 0
363925, -28004.79, -24969.94, 0.00, 0.00, 0.00, 0.00, 0.00, 0.00, 0
363926, -28059.48, -25021.73, 0.00, 0.00, 0.00, 0.00, 0.00, 0.00, 0
363927, -28261.77, -25563.40, 0.00, 0.00, 0.00, 0.00, 0.00, 0.00, 0
363928, -28245.94, -25574.66, 0.00, 0.00, 0.00, 0.00, 0.00, 0.00, 0
363929, -28026.83, -25082.88, 0.00, 0.00, 0.00, 0.00, 0.00, 0.00, 0
363930, -28018.45, -25022.67, 0.00, 0.00, 0.00, 0.00, 0.00, 0.00, 0
363931, -28212.91, -25473.66, 0.00, 0.00, 0.00, 0.00, 0.00, 0.00, 0
363932, -28262.64, -25635.15, 0.00, 0.00, 0.00, 0.00, 0.00, 0.00, 0
363933, -28070.19, -25188.31, 0.00, 0.00, 0.00, 0.00, 0.00, 0.00, 0
363934, -28006.15, -25002.08, 0.00, 0.00, 0.00, 0.00, 0.00, 0.00, 0
363935, -28186.44, -25418.27, 0.00, 0.00, 0.00, 0.00, 0.00, 0.00, 0
363936, -28280.54, -25668.07, 0.00, 0.00, 0.00, 0.00, 0.00, 0.00, 0
363937, -28099.32, -25247.93, 0.00, 0.00, 0.00, 0.00, 0.00, 0.00, 0
363938, -27992.59, -24948.26, 0.00, 0.00, 0.00, 0.00, 0.00, 0.00, 0
363939, -28149.58, -25274.39, 0.00, 0.00, 0.00, 0.00, 0.00, 0.00, 0
363940, -28285.57, -25622.05, 0.00, 0.00, 0.00, 0.00, 0.00, 0.00, 0
363941, -28134.86, -25317.26, 0.00, 0.00, 0.00, 0.00, 0.00, 0.00, 0
363942, -27983.51, -24959.32, 0.00, 0.00, 0.00, 0.00, 0.00, 0.00, 0
363943, -28109.17, -25212.77, 0.00, 0.00, 0.00, 0.00, 0.00, 0.00, 0
363944, -28275.47, -25622.16, 0.00, 0.00, 0.00, 0.00, 0.00, 0.00, 0
363945, -28177.81, -25414.80, 0.00, 0.00, 0.00, 0.00, 0.00, 0.00, 0
363946, -28001.86, -24987.13, 0.00, 0.00, 0.00, 0.00, 0.00, 0.00, 0
363947, -28083.98, -25142.96, 0.00, 0.00, 0.00, 0.00, 0.00, 0.00, 0
363948, -28272.54, -25627.50, 0.00, 0.00, 0.00, 0.00, 0.00, 0.00, 0
363949, -28224.02, -25545.83, 0.00, 0.00, 0.00, 0.00, 0.00, 0.00, 0
363950, -28024.97, -25067.62, 0.00, 0.00, 0.00, 0.00, 0.00, 0.00, 0
363951, -28053.20, -25090.10, 0.00, 0.00, 0.00, 0.00, 0.00, 0.00, 0
363952, -28249.12, -25552.69, 0.00, 0.00, 0.00, 0.00, 0.00, 0.00, 0
363953, -28252.85, -25580.95, 0.00, 0.00, 0.00, 0.00, 0.00, 0.00, 0
363954, -28051.13, -25088.58, 0.00, 0.00, 0.00, 0.00, 0.00, 0.00, 0
363955, -28024.46, -24983.26, 0.00, 0.00, 0.00, 0.00, 0.00, 0.00, 0
363956, -28206.47, -25425.49, 0.00, 0.00, 0.00, 0.00, 0.00, 0.00, 0
363957, -28261.86, -25595.61, 0.00, 0.00, 0.00, 0.00, 0.00, 0.00, 0
363958, -28074.59, -25152.80, 0.00, 0.00, 0.00, 0.00, 0.00, 0.00, 0
363959, -28004.16, -24949.57, 0.00, 0.00, 0.00, 0.00, 0.00, 0.00, 0
363960, -28170.48, -25354.21, 0.00, 0.00, 0.00, 0.00, 0.00, 0.00, 0
363961, -28272.63, -25631.24, 0.00, 0.00, 0.00, 0.00, 0.00, 0.00, 0
363962, -28120.93, -25249.92, 0.00, 0.00, 0.00, 0.00, 0.00, 0.00, 0
363963, -28002.73, -24968.35, 0.00, 0.00, 0.00, 0.00, 0.00, 0.00, 0
363964, -28139.75, -25297.14, 0.00, 0.00, 0.00, 0.00, 0.00, 0.00, 0
363965, -28276.90, -25693.60, 0.00, 0.00, 0.00, 0.00, 0.00, 0.00, 0
363966, -28157.99, -25407.65, 0.00, 0.00, 0.00, 0.00, 0.00, 0.00, 0
363967, -28003.65, -24992.02, 0.00, 0.00, 0.00, 0.00, 0.00, 0.00, 0
363968, -28111.50, -25207.76, 0.00, 0.00, 0.00, 0.00, 0.00, 0.00, 0
363969, -28280.34, -25634.59, 0.00, 0.00, 0.00, 0.00, 0.00, 0.00, 0
363970, -28196.08, -25447.39, 0.00, 0.00, 0.00, 0.00, 0.00, 0.00, 0
363971, -28024.93, -25001.07, 0.00, 0.00, 0.00, 0.00, 0.00, 0.00, 0
363972, -28084.94, -25121.48, 0.00, 0.00, 0.00, 0.00, 0.00, 0.00, 0
363973, -28268.61, -25579.40, 0.00, 0.00, 0.00, 0.00, 0.00, 0.00, 0
363974, -28233.20, -25514.67, 0.00, 0.00, 0.00, 0.00, 0.00, 0.00, 0
363975, -28038.07, -25039.32, 0.00, 0.00, 0.00, 0.00, 0.00, 0.00, 0
363976, -28057.05, -25051.46, 0.00, 0.00, 0.00, 0.00, 0.00, 0.00, 0
363977, -28235.57, -25513.62, 0.00, 0.00, 0.00, 0.00, 0.00, 0.00, 0
363978, -28252.98, -25577.19, 0.00, 0.00, 0.00, 0.00, 0.00, 0.00, 0
363979, -28073.57, -25114.69, 0.00, 0.00, 0.00, 0.00, 0.00, 0.00, 0
363980, -28039.14, -24991.64, 0.00, 0.00, 0.00, 0.00, 0.00, 0.00, 0
363981, -28209.44, -25421.73, 0.00, 0.00, 0.00, 0.00, 0.00, 0.00, 0
363982, -28274.87, -25614.07, 0.00, 0.00, 0.00, 0.00, 0.00, 0.00, 0
363983, -28096.10, -25182.64, 0.00, 0.00, 0.00, 0.00, 0.00, 0.00, 0
363984, -28015.59, -24962.12, 0.00, 0.00, 0.00, 0.00, 0.00, 0.00, 0
363985, -28169.10, -25334.79, 0.00, 0.00, 0.00, 0.00, 0.00, 0.00, 0
363986, -28280.12, -25603.86, 0.00, 0.00, 0.00, 0.00, 0.00, 0.00, 0
363987, -28133.94, -25263.68, 0.00, 0.00, 0.00, 0.00, 0.00, 0.00, 0
363988, -28007.18, -24971.41, 0.00, 0.00, 0.00, 0.00, 0.00, 0.00, 0
363989, -28136.87, -25261.16, 0.00, 0.00, 0.00, 0.00, 0.00, 0.00, 0
363990, -28276.86, -25596.52, 0.00, 0.00, 0.00, 0.00, 0.00, 0.00, 0
363991, -28158.19, -25324.77, 0.00, 0.00, 0.00, 0.00, 0.00, 0.00, 0
363992, -27994.35, -24989.00, 0.00, 0.00, 0.00, 0.00, 0.00, 0.00, 0
363993, -28087.69, -25199.67, 0.00, 0.00, 0.00, 0.00, 0.00, 0.00, 0
363994, -28261.23, -25623.37, 0.00, 0.00, 0.00, 0.00, 0.00, 0.00, 0
363995, -28192.95, -25465.88, 0.00, 0.00, 0.00, 0.00, 0.00, 0.00, 0
363996, -28018.40, -25019.56, 0.00, 0.00, 0.00, 0.00, 0.00, 0.00, 0
363997, -28060.89, -25094.73, 0.00, 0.00, 0.00, 0.00, 0.00, 0.00, 0
363998, -28233.83, -25513.96, 0.00, 0.00, 0.00, 0.00, 0.00, 0.00, 0
363999, -28210.07, -25484.43, 0.00, 0.00, 0.00, 0.00, 0.00, 0.00, 0
364000, -28021.35, -25042.94, 0.00, 0.00, 0.00, 0.00, 0.00, 0.00, 0
364001, -28046.88, -25044.57, 0.00, 0.00, 0.00, 0.00, 0.00, 0.00, 0
364002, -28225.00, -25500.90, 0.00, 0.00, 0.00, 0.00, 0.00, 0.00, 0
364003, -28245.83, -25576.05, 0.00, 0.00, 0.00, 0.00, 0.00, 0.00, 0
364004, -28052.58, -25099.20, 0.00, 0.00, 0.00, 0.00, 0.00, 0.00, 0
364005, -28009.80, -24965.67, 0.00, 0.00, 0.00, 0.00, 0.00, 0.00, 0
364006, -28187.90, -25402.09, 0.00, 0.00, 0.00, 0.00, 0.00, 0.00, 0
364007, -28267.38, -25618.59, 0.00, 0.00, 0.00, 0.00, 0.00, 0.00, 0
364008, -28080.99, -25194.37, 0.00, 0.00, 0.00, 0.00, 0.00, 0.00, 0
364009, -27987.76, -24947.68, 0.00, 0.00, 0.00, 0.00, 0.00, 0.00, 0
364010, -28156.58, -25329.31, 0.00, 0.00, 0.00, 0.00, 0.00, 0.00, 0
364011, -28271.56, -25647.38, 0.00, 0.00, 0.00, 0.00, 0.00, 0.00, 0
364012, -28114.98, -25298.80, 0.00, 0.00, 0.00, 0.00, 0.00, 0.00, 0
364013, -27988.83, -24954.07, 0.00, 0.00, 0.00, 0.00, 0.00, 0.00, 0
364014, -28108.35, -25222.00, 0.00, 0.00, 0.00, 0.00, 0.00, 0.00, 0
364015, -28256.45, -25608.39, 0.00, 0.00, 0.00, 0.00, 0.00, 0.00, 0
364016, -28145.74, -25357.54, 0.00, 0.00, 0.00, 0.00, 0.00, 0.00, 0
364017, -27985.48, -24911.26, 0.00, 0.00, 0.00, 0.00, 0.00, 0.00, 0
364018, -28077.08, -25081.92, 0.00, 0.00, 0.00, 0.00, 0.00, 0.00, 0
364019, -28245.90, -25560.36, 0.00, 0.00, 0.00, 0.00, 0.00, 0.00, 0
364020, -28173.88, -25456.85, 0.00, 0.00, 0.00, 0.00, 0.00, 0.00, 0
364021, -27998.26, -25012.76, 0.00, 0.00, 0.00, 0.00, 0.00, 0.00, 0
364022, -28033.87, -25089.05, 0.00, 0.00, 0.00, 0.00, 0.00, 0.00, 0
364023, -28212.53, -25535.77, 0.00, 0.00, 0.00, 0.00, 0.00, 0.00, 0
364024, -28204.41, -25500.75, 0.00, 0.00, 0.00, 0.00, 0.00, 0.00, 0
364025, -28003.00, -25036.05, 0.00, 0.00, 0.00, 0.00, 0.00, 0.00, 0
364026, -27989.52, -25006.59, 0.00, 0.00, 0.00, 0.00, 0.00, 0.00, 0
364027, -28177.99, -25481.23, 0.00, 0.00, 0.00, 0.00, 0.00, 0.00, 0
364028, -28215.72, -25608.59, 0.00, 0.00, 0.00, 0.00, 0.00, 0.00, 0
364029, -28015.54, -25153.13, 0.00, 0.00, 0.00, 0.00, 0.00, 0.00, 0
364030, -27963.24, -24994.75, 0.00, 0.00, 0.00, 0.00, 0.00, 0.00, 0
364031, -28142.37, -25411.03, 0.00, 0.00, 0.00, 0.00, 0.00, 0.00, 0
364032, -28242.46, -25634.12, 0.00, 0.00, 0.00, 0.00, 0.00, 0.00, 0
364033, -28070.26, -25219.12, 0.00, 0.00, 0.00, 0.00, 0.00, 0.00, 0
364034, -27951.44, -24936.68, 0.00, 0.00, 0.00, 0.00, 0.00, 0.00, 0
364035, -28078.42, -25269.83, 0.00, 0.00, 0.00, 0.00, 0.00, 0.00, 0
364036, -28234.74, -25625.65, 0.00, 0.00, 0.00, 0.00, 0.00, 0.00, 0
364037, -28109.60, -25316.01, 0.00, 0.00, 0.00, 0.00, 0.00, 0.00, 0
364038, -27943.86, -24917.86, 0.00, 0.00, 0.00, 0.00, 0.00, 0.00, 0
364039, -28077.12, -25172.31, 0.00, 0.00, 0.00, 0.00, 0.00, 0.00, 0
364040, -28236.04, -25540.02, 0.00, 0.00, 0.00, 0.00, 0.00, 0.00, 0
364041, -28118.27, -25279.29, 0.00, 0.00, 0.00, 0.00, 0.00, 0.00, 0
364042, -27975.20, -24960.73, 0.00, 0.00, 0.00, 0.00, 0.00, 0.00, 0
364043, -28067.13, -25216.50, 0.00, 0.00, 0.00, 0.00, 0.00, 0.00, 0
364044, -28245.16, -25642.90, 0.00, 0.00, 0.00, 0.00, 0.00, 0.00, 0
364045, -28187.36, -25498.78, 0.00, 0.00, 0.00, 0.00, 0.00, 0.00, 0
364046, -28010.38, -25034.33, 0.00, 0.00, 0.00, 0.00, 0.00, 0.00, 0
364047, -28040.89, -25055.08, 0.00, 0.00, 0.00, 0.00, 0.00, 0.00, 0
364048, -28215.48, -25497.21, 0.00, 0.00, 0.00, 0.00, 0.00, 0.00, 0
364049, -28222.59, -25539.79, 0.00, 0.00, 0.00, 0.00, 0.00, 0.00, 0
364050, -28034.88, -25059.17, 0.00, 0.00, 0.00, 0.00, 0.00, 0.00, 0
364051, -28008.90, -24977.45, 0.00, 0.00, 0.00, 0.00, 0.00, 0.00, 0
364052, -28195.18, -25457.61, 0.00, 0.00, 0.00, 0.00, 0.00, 0.00, 0
364053, -28242.54, -25598.11, 0.00, 0.00, 0.00, 0.00, 0.00, 0.00, 0
364054, -28071.94, -25152.55, 0.00, 0.00, 0.00, 0.00, 0.00, 0.00, 0
364055, -28011.63, -24985.72, 0.00, 0.00, 0.00, 0.00, 0.00, 0.00, 0
364056, -28173.39, -25382.21, 0.00, 0.00, 0.00, 0.00, 0.00, 0.00, 0
364057, -28265.68, -25622.85, 0.00, 0.00, 0.00, 0.00, 0.00, 0.00, 0
364058, -28107.23, -25239.01, 0.00, 0.00, 0.00, 0.00, 0.00, 0.00, 0
364059, -28005.33, -24958.14, 0.00, 0.00, 0.00, 0.00, 0.00, 0.00, 0
364060, -28135.73, -25265.88, 0.00, 0.00, 0.00, 0.00, 0.00, 0.00, 0
364061, -28278.69, -25624.15, 0.00, 0.00, 0.00, 0.00, 0.00, 0.00, 0
364062, -28163.15, -25345.20, 0.00, 0.00, 0.00, 0.00, 0.00, 0.00, 0
364063, -28019.16, -24962.56, 0.00, 0.00, 0.00, 0.00, 0.00, 0.00, 0
364064, -28126.14, -25180.38, 0.00, 0.00, 0.00, 0.00, 0.00, 0.00, 0
364065, -28294.87, -25594.89, 0.00, 0.00, 0.00, 0.00, 0.00, 0.00, 0
364066, -28202.56, -25410.15, 0.00, 0.00, 0.00, 0.00, 0.00, 0.00, 0
364067, -28023.52, -24966.61, 0.00, 0.00, 0.00, 0.00, 0.00, 0.00, 0
364068, -28084.45, -25095.55, 0.00, 0.00, 0.00, 0.00, 0.00, 0.00, 0
364069, -28251.53, -25547.78, 0.00, 0.00, 0.00, 0.00, 0.00, 0.00, 0
364070, -28219.32, -25472.03, 0.00, 0.00, 0.00, 0.00, 0.00, 0.00, 0
364071, -28039.55, -25010.30, 0.00, 0.00, 0.00, 0.00, 0.00, 0.00, 0
364072, -28055.55, -25018.73, 0.00, 0.00, 0.00, 0.00, 0.00, 0.00, 0
364073, -28234.37, -25475.15, 0.00, 0.00, 0.00, 0.00, 0.00, 0.00, 0
364074, -28252.09, -25538.90, 0.00, 0.00, 0.00, 0.00, 0.00, 0.00, 0
364075, -28077.25, -25083.87, 0.00, 0.00, 0.00, 0.00, 0.00, 0.00, 0
364076, -28046.45, -24975.50, 0.00, 0.00, 0.00, 0.00, 0.00, 0.00, 0
364077, -28204.62, -25412.90, 0.00, 0.00, 0.00, 0.00, 0.00, 0.00, 0
364078, -28270.53, -25593.44, 0.00, 0.00, 0.00, 0.00, 0.00, 0.00, 0
364079, -28100.10, -25170.16, 0.00, 0.00, 0.00, 0.00, 0.00, 0.00, 0
364080, -28011.34, -24961.69, 0.00, 0.00, 0.00, 0.00, 0.00, 0.00, 0
364081, -28180.50, -25352.44, 0.00, 0.00, 0.00, 0.00, 0.00, 0.00, 0
364082, -28286.53, -25636.82, 0.00, 0.00, 0.00, 0.00, 0.00, 0.00, 0
364083, -28136.20, -25282.06, 0.00, 0.00, 0.00, 0.00, 0.00, 0.00, 0
364084, -28021.82, -24965.47, 0.00, 0.00, 0.00, 0.00, 0.00, 0.00, 0
364085, -28141.67, -25250.83, 0.00, 0.00, 0.00, 0.00, 0.00, 0.00, 0
364086, -28270.89, -25622.14, 0.00, 0.00, 0.00, 0.00, 0.00, 0.00, 0
364087, -28167.29, -25360.15, 0.00, 0.00, 0.00, 0.00, 0.00, 0.00, 0
364088, -28014.47, -24962.74, 0.00, 0.00, 0.00, 0.00, 0.00, 0.00, 0
364089, -28099.79, -25159.10, 0.00, 0.00, 0.00, 0.00, 0.00, 0.00, 0
364090, -28267.94, -25595.12, 0.00, 0.00, 0.00, 0.00, 0.00, 0.00, 0
364091, -28196.41, -25460.96, 0.00, 0.00, 0.00, 0.00, 0.00, 0.00, 0
364092, -28031.50, -25016.00, 0.00, 0.00, 0.00, 0.00, 0.00, 0.00, 0
364093, -28079.40, -25078.81, 0.00, 0.00, 0.00, 0.00, 0.00, 0.00, 0
364094, -28252.07, -25538.07, 0.00, 0.00, 0.00, 0.00, 0.00, 0.00, 0
364095, -28227.93, -25512.77, 0.00, 0.00, 0.00, 0.00, 0.00, 0.00, 0
364096, -28058.90, -25056.01, 0.00, 0.00, 0.00, 0.00, 0.00, 0.00, 0
364097, -28062.30, -25023.27, 0.00, 0.00, 0.00, 0.00, 0.00, 0.00, 0
364098, -28228.53, -25487.98, 0.00, 0.00, 0.00, 0.00, 0.00, 0.00, 0
364099, -28253.92, -25602.94, 0.00, 0.00, 0.00, 0.00, 0.00, 0.00, 0
364100, -28077.90, -25168.04, 0.00, 0.00, 0.00, 0.00, 0.00, 0.00, 0
364101, -28042.72, -25023.29, 0.00, 0.00, 0.00, 0.00, 0.00, 0.00, 0
364102, -28207.61, -25436.71, 0.00, 0.00, 0.00, 0.00, 0.00, 0.00, 0
364103, -28271.49, -25629.04, 0.00, 0.00, 0.00, 0.00, 0.00, 0.00, 0
364104, -28105.06, -25197.54, 0.00, 0.00, 0.00, 0.00, 0.00, 0.00, 0
364105, -28017.60, -24943.96, 0.00, 0.00, 0.00, 0.00, 0.00, 0.00, 0
364106, -28173.30, -25319.14, 0.00, 0.00, 0.00, 0.00, 0.00, 0.00, 0
364107, -28285.28, -25635.75, 0.00, 0.00, 0.00, 0.00, 0.00, 0.00, 0
364108, -28137.09, -25305.50, 0.00, 0.00, 0.00, 0.00, 0.00, 0.00, 0
364109, -28012.59, -24978.30, 0.00, 0.00, 0.00, 0.00, 0.00, 0.00, 0
364110, -28141.78, -25246.76, 0.00, 0.00, 0.00, 0.00, 0.00, 0.00, 0
364111, -28294.20, -25611.48, 0.00, 0.00, 0.00, 0.00, 0.00, 0.00, 0
364112, -28174.24, -25421.98, 0.00, 0.00, 0.00, 0.00, 0.00, 0.00, 0
364113, -28011.43, -25047.79, 0.00, 0.00, 0.00, 0.00, 0.00, 0.00, 0
364114, -28102.42, -25200.83, 0.00, 0.00, 0.00, 0.00, 0.00, 0.00, 0
364115, -28274.20, -25605.17, 0.00, 0.00, 0.00, 0.00, 0.00, 0.00, 0
364116, -28218.09, -25494.60, 0.00, 0.00, 0.00, 0.00, 0.00, 0.00, 0
364117, -28032.89, -25049.96, 0.00, 0.00, 0.00, 0.00, 0.00, 0.00, 0
364118, -28064.87, -25107.65, 0.00, 0.00, 0.00, 0.00, 0.00, 0.00, 0
364119, -28238.81, -25568.41, 0.00, 0.00, 0.00, 0.00, 0.00, 0.00, 0
364120, -28233.98, -25570.04, 0.00, 0.00, 0.00, 0.00, 0.00, 0.00, 0
364121, -28034.94, -25082.48, 0.00, 0.00, 0.00, 0.00, 0.00, 0.00, 0
364122, -28026.45, -25034.82, 0.00, 0.00, 0.00, 0.00, 0.00, 0.00, 0
364123, -28219.75, -25516.10, 0.00, 0.00, 0.00, 0.00, 0.00, 0.00, 0
364124, -28249.36, -25623.10, 0.00, 0.00, 0.00, 0.00, 0.00, 0.00, 0
364125, -28063.29, -25161.16, 0.00, 0.00, 0.00, 0.00, 0.00, 0.00, 0
364126, -27999.52, -24989.38, 0.00, 0.00, 0.00, 0.00, 0.00, 0.00, 0
364127, -28181.06, -25379.53, 0.00, 0.00, 0.00, 0.00, 0.00, 0.00, 0
364128, -28273.44, -25621.74, 0.00, 0.00, 0.00, 0.00, 0.00, 0.00, 0
364129, -28086.15, -25200.67, 0.00, 0.00, 0.00, 0.00, 0.00, 0.00, 0
364130, -27985.25, -24951.52, 0.00, 0.00, 0.00, 0.00, 0.00, 0.00, 0
364131, -28144.40, -25333.98, 0.00, 0.00, 0.00, 0.00, 0.00, 0.00, 0
364132, -28277.28, -25677.10, 0.00, 0.00, 0.00, 0.00, 0.00, 0.00, 0
364133, -28134.90, -25336.97, 0.00, 0.00, 0.00, 0.00, 0.00, 0.00, 0
364134, -27993.59, -24941.51, 0.00, 0.00, 0.00, 0.00, 0.00, 0.00, 0
364135, -28098.29, -25175.53, 0.00, 0.00, 0.00, 0.00, 0.00, 0.00, 0
364136, -28276.01, -25641.43, 0.00, 0.00, 0.00, 0.00, 0.00, 0.00, 0
364137, -28184.86, -25454.03, 0.00, 0.00, 0.00, 0.00, 0.00, 0.00, 0
364138, -28001.21, -25009.84, 0.00, 0.00, 0.00, 0.00, 0.00, 0.00, 0
364139, -28076.70, -25168.78, 0.00, 0.00, 0.00, 0.00, 0.00, 0.00, 0
364140, -28260.81, -25624.91, 0.00, 0.00, 0.00, 0.00, 0.00, 0.00, 0
364141, -28210.27, -25508.68, 0.00, 0.00, 0.00, 0.00, 0.00, 0.00, 0
364142, -28024.26, -25029.68, 0.00, 0.00, 0.00, 0.00, 0.00, 0.00, 0
364143, -28055.51, -25082.34, 0.00, 0.00, 0.00, 0.00, 0.00, 0.00, 0
364144, -28238.12, -25543.19, 0.00, 0.00, 0.00, 0.00, 0.00, 0.00, 0
364145, -28222.09, -25540.31, 0.00, 0.00, 0.00, 0.00, 0.00, 0.00, 0
364146, -28045.87, -25068.71, 0.00, 0.00, 0.00, 0.00, 0.00, 0.00, 0
364147, -28038.07, -25022.20, 0.00, 0.00, 0.00, 0.00, 0.00, 0.00, 0
364148, -28214.83, -25476.43, 0.00, 0.00, 0.00, 0.00, 0.00, 0.00, 0
364149, -28257.12, -25607.34, 0.00, 0.00, 0.00, 0.00, 0.00, 0.00, 0
364150, -28078.44, -25161.11, 0.00, 0.00, 0.00, 0.00, 0.00, 0.00, 0
364151, -28015.32, -24967.52, 0.00, 0.00, 0.00, 0.00, 0.00, 0.00, 0
364152, -28172.90, -25358.52, 0.00, 0.00, 0.00, 0.00, 0.00, 0.00, 0
364153, -28266.55, -25623.59, 0.00, 0.00, 0.00, 0.00, 0.00, 0.00, 0
364154, -28106.94, -25236.77, 0.00, 0.00, 0.00, 0.00, 0.00, 0.00, 0
364155, -28001.62, -24948.28, 0.00, 0.00, 0.00, 0.00, 0.00, 0.00, 0
364156, -28140.91, -25269.14, 0.00, 0.00, 0.00, 0.00, 0.00, 0.00, 0
364157, -28272.59, -25589.15, 0.00, 0.00, 0.00, 0.00, 0.00, 0.00, 0
364158, -28149.96, -25250.90, 0.00, 0.00, 0.00, 0.00, 0.00, 0.00, 0
364159, -28004.97, -24871.10, 0.00, 0.00, 0.00, 0.00, 0.00, 0.00, 0
364160, -28115.70, -25153.29, 0.00, 0.00, 0.00, 0.00, 0.00, 0.00, 0
364161, -28276.97, -25580.59, 0.00, 0.00, 0.00, 0.00, 0.00, 0.00, 0
364162, -28190.11, -25375.73, 0.00, 0.00, 0.00, 0.00, 0.00, 0.00, 0
364163, -28015.27, -24942.45, 0.00, 0.00, 0.00, 0.00, 0.00, 0.00, 0
364164, -28097.55, -25090.84, 0.00, 0.00, 0.00, 0.00, 0.00, 0.00, 0
364165, -28267.22, -25537.52, 0.00, 0.00, 0.00, 0.00, 0.00, 0.00, 0
364166, -28215.21, -25449.29, 0.00, 0.00, 0.00, 0.00, 0.00, 0.00, 0
364167, -28034.54, -24989.32, 0.00, 0.00, 0.00, 0.00, 0.00, 0.00, 0
364168, -28062.19, -25016.83, 0.00, 0.00, 0.00, 0.00, 0.00, 0.00, 0
364169, -28239.28, -25479.38, 0.00, 0.00, 0.00, 0.00, 0.00, 0.00, 0
364170, -28245.76, -25515.70, 0.00, 0.00, 0.00, 0.00, 0.00, 0.00, 0
364171, -28054.39, -25043.92, 0.00, 0.00, 0.00, 0.00, 0.00, 0.00, 0
364172, -28034.67, -24968.64, 0.00, 0.00, 0.00, 0.00, 0.00, 0.00, 0
364173, -28205.08, -25416.12, 0.00, 0.00, 0.00, 0.00, 0.00, 0.00, 0
364174, -28267.49, -25564.27, 0.00, 0.00, 0.00, 0.00, 0.00, 0.00, 0
364175, -28095.07, -25129.26, 0.00, 0.00, 0.00, 0.00, 0.00, 0.00, 0
364176, -28023.05, -24933.62, 0.00, 0.00, 0.00, 0.00, 0.00, 0.00, 0
364177, -28172.61, -25316.90, 0.00, 0.00, 0.00, 0.00, 0.00, 0.00, 0
364178, -28271.42, -25579.51, 0.00, 0.00, 0.00, 0.00, 0.00, 0.00, 0
364179, -28115.77, -25216.37, 0.00, 0.00, 0.00, 0.00, 0.00, 0.00, 0
364180, -28001.46, -24912.98, 0.00, 0.00, 0.00, 0.00, 0.00, 0.00, 0
364181, -28139.75, -25216.32, 0.00, 0.00, 0.00, 0.00, 0.00, 0.00, 0
364182, -28275.20, -25568.76, 0.00, 0.00, 0.00, 0.00, 0.00, 0.00, 0
364183, -28157.30, -25306.17, 0.00, 0.00, 0.00, 0.00, 0.00, 0.00, 0
364184, -28010.02, -24933.10, 0.00, 0.00, 0.00, 0.00, 0.00, 0.00, 0
364185, -28100.93, -25149.27, 0.00, 0.00, 0.00, 0.00, 0.00, 0.00, 0
364186, -28260.14, -25562.21, 0.00, 0.00, 0.00, 0.00, 0.00, 0.00, 0
364187, -28186.73, -25378.62, 0.00, 0.00, 0.00, 0.00, 0.00, 0.00, 0
364188, -28009.46, -24931.69, 0.00, 0.00, 0.00, 0.00, 0.00, 0.00, 0
364189, -28067.20, -25067.37, 0.00, 0.00, 0.00, 0.00, 0.00, 0.00, 0
364190, -28257.12, -25547.84, 0.00, 0.00, 0.00, 0.00, 0.00, 0.00, 0
364191, -28225.09, -25492.30, 0.00, 0.00, 0.00, 0.00, 0.00, 0.00, 0
364192, -28036.96, -25030.53, 0.00, 0.00, 0.00, 0.00, 0.00, 0.00, 0
364193, -28056.67, -25026.62, 0.00, 0.00, 0.00, 0.00, 0.00, 0.00, 0
364194, -28235.19, -25448.04, 0.00, 0.00, 0.00, 0.00, 0.00, 0.00, 0
364195, -28249.56, -25508.97, 0.00, 0.00, 0.00, 0.00, 0.00, 0.00, 0
364196, -28075.89, -25119.78, 0.00, 0.00, 0.00, 0.00, 0.00, 0.00, 0
364197, -28040.29, -25028.86, 0.00, 0.00, 0.00, 0.00, 0.00, 0.00, 0
364198, -28208.41, -25412.01, 0.00, 0.00, 0.00, 0.00, 0.00, 0.00, 0
364199, -28272.09, -25559.20, 0.00, 0.00, 0.00, 0.00, 0.00, 0.00, 0
364200, -28101.44, -25157.02, 0.00, 0.00, 0.00, 0.00, 0.00, 0.00, 0
364201, -28018.67, -24966.81, 0.00, 0.00, 0.00, 0.00, 0.00, 0.00, 0
364202, -28172.88, -25318.42, 0.00, 0.00, 0.00, 0.00, 0.00, 0.00, 0
364203, -28281.42, -25579.78, 0.00, 0.00, 0.00, 0.00, 0.00, 0.00, 0
364204, -28144.20, -25223.65, 0.00, 0.00, 0.00, 0.00, 0.00, 0.00, 0
364205, -28022.31, -24935.00, 0.00, 0.00, 0.00, 0.00, 0.00, 0.00, 0
364206, -28143.93, -25257.31, 0.00, 0.00, 0.00, 0.00, 0.00, 0.00, 0
364207, -28282.89, -25596.43, 0.00, 0.00, 0.00, 0.00, 0.00, 0.00, 0
364208, -28176.14, -25318.04, 0.00, 0.00, 0.00, 0.00, 0.00, 0.00, 0
364209, -28029.91, -24966.76, 0.00, 0.00, 0.00, 0.00, 0.00, 0.00, 0
364210, -28112.73, -25193.92, 0.00, 0.00, 0.00, 0.00, 0.00, 0.00, 0
364211, -28278.11, -25590.20, 0.00, 0.00, 0.00, 0.00, 0.00, 0.00, 0
364212, -28218.52, -25427.88, 0.00, 0.00, 0.00, 0.00, 0.00, 0.00, 0
364213, -28040.02, -24990.12, 0.00, 0.00, 0.00, 0.00, 0.00, 0.00, 0
364214, -28095.07, -25098.50, 0.00, 0.00, 0.00, 0.00, 0.00, 0.00, 0
364215, -28261.37, -25533.94, 0.00, 0.00, 0.00, 0.00, 0.00, 0.00, 0
364216, -28237.34, -25494.13, 0.00, 0.00, 0.00, 0.00, 0.00, 0.00, 0
364217, -28053.03, -25048.06, 0.00, 0.00, 0.00, 0.00, 0.00, 0.00, 0
364218, -28058.08, -25020.45, 0.00, 0.00, 0.00, 0.00, 0.00, 0.00, 0
364219, -28233.18, -25437.83, 0.00, 0.00, 0.00, 0.00, 0.00, 0.00, 0
364220, -28265.01, -25523.32, 0.00, 0.00, 0.00, 0.00, 0.00, 0.00, 0
364221, -28090.13, -25109.10, 0.00, 0.00, 0.00, 0.00, 0.00, 0.00, 0
364222, -28048.33, -24997.90, 0.00, 0.00, 0.00, 0.00, 0.00, 0.00, 0
364223, -28211.01, -25372.94, 0.00, 0.00, 0.00, 0.00, 0.00, 0.00, 0
364224, -28282.71, -25548.09, 0.00, 0.00, 0.00, 0.00, 0.00, 0.00, 0
364225, -28120.73, -25173.67, 0.00, 0.00, 0.00, 0.00, 0.00, 0.00, 0
364226, -28028.88, -24959.21, 0.00, 0.00, 0.00, 0.00, 0.00, 0.00, 0
364227, -28156.85, -25265.88, 0.00, 0.00, 0.00, 0.00, 0.00, 0.00, 0
364228, -28287.54, -25560.13, 0.00, 0.00, 0.00, 0.00, 0.00, 0.00, 0
364229, -28154.57, -25263.97, 0.00, 0.00, 0.00, 0.00, 0.00, 0.00, 0
364230, -28018.29, -24954.58, 0.00, 0.00, 0.00, 0.00, 0.00, 0.00, 0
364231, -28146.88, -25218.47, 0.00, 0.00, 0.00, 0.00, 0.00, 0.00, 0
364232, -28286.38, -25567.24, 0.00, 0.00, 0.00, 0.00, 0.00, 0.00, 0
364233, -28182.58, -25331.25, 0.00, 0.00, 0.00, 0.00, 0.00, 0.00, 0
364234, -28028.66, -24943.36, 0.00, 0.00, 0.00, 0.00, 0.00, 0.00, 0
364235, -28109.31, -25117.59, 0.00, 0.00, 0.00, 0.00, 0.00, 0.00, 0
364236, -28268.94, -25545.09, 0.00, 0.00, 0.00, 0.00, 0.00, 0.00, 0
364237, -28216.37, -25437.49, 0.00, 0.00, 0.00, 0.00, 0.00, 0.00, 0
364238, -28038.83, -25030.04, 0.00, 0.00, 0.00, 0.00, 0.00, 0.00, 0
364239, -28084.90, -25094.48, 0.00, 0.00, 0.00, 0.00, 0.00, 0.00, 0
364240, -28252.96, -25502.27, 0.00, 0.00, 0.00, 0.00, 0.00, 0.00, 0
364241, -28243.19, -25495.90, 0.00, 0.00, 0.00, 0.00, 0.00, 0.00, 0
364242, -28063.26, -25056.91, 0.00, 0.00, 0.00, 0.00, 0.00, 0.00, 0
364243, -28060.92, -25015.67, 0.00, 0.00, 0.00, 0.00, 0.00, 0.00, 0
364244, -28230.28, -25433.42, 0.00, 0.00, 0.00, 0.00, 0.00, 0.00, 0
364245, -28273.32, -25562.59, 0.00, 0.00, 0.00, 0.00, 0.00, 0.00, 0
364246, -28102.87, -25151.46, 0.00, 0.00, 0.00, 0.00, 0.00, 0.00, 0
364247, -28040.31, -24983.46, 0.00, 0.00, 0.00, 0.00, 0.00, 0.00, 0
364248, -28191.85, -25348.71, 0.00, 0.00, 0.00, 0.00, 0.00, 0.00, 0
364249, -28281.06, -25572.83, 0.00, 0.00, 0.00, 0.00, 0.00, 0.00, 0
364250, -28129.83, -25211.27, 0.00, 0.00, 0.00, 0.00, 0.00, 0.00, 0
364251, -28029.62, -24959.46, 0.00, 0.00, 0.00, 0.00, 0.00, 0.00, 0
364252, -28160.11, -25283.71, 0.00, 0.00, 0.00, 0.00, 0.00, 0.00, 0
364253, -28280.50, -25592.88, 0.00, 0.00, 0.00, 0.00, 0.00, 0.00, 0
364254, -28158.82, -25294.87, 0.00, 0.00, 0.00, 0.00, 0.00, 0.00, 0
364255, -28026.90, -24966.70, 0.00, 0.00, 0.00, 0.00, 0.00, 0.00, 0
364256, -28136.40, -25200.96, 0.00, 0.00, 0.00, 0.00, 0.00, 0.00, 0
364257, -28288.17, -25581.28, 0.00, 0.00, 0.00, 0.00, 0.00, 0.00, 0
364258, -28197.26, -25381.16, 0.00, 0.00, 0.00, 0.00, 0.00, 0.00, 0
364259, -28035.66, -24984.13, 0.00, 0.00, 0.00, 0.00, 0.00, 0.00, 0
364260, -28109.44, -25120.48, 0.00, 0.00, 0.00, 0.00, 0.00, 0.00, 0
364261, -28276.03, -25545.25, 0.00, 0.00, 0.00, 0.00, 0.00, 0.00, 0
364262, -28231.17, -25464.76, 0.00, 0.00, 0.00, 0.00, 0.00, 0.00, 0
364263, -28047.46, -25030.78, 0.00, 0.00, 0.00, 0.00, 0.00, 0.00, 0
364264, -28077.84, -25055.43, 0.00, 0.00, 0.00, 0.00, 0.00, 0.00, 0
364265, -28261.97, -25491.36, 0.00, 0.00, 0.00, 0.00, 0.00, 0.00, 0
364266, -28258.91, -25528.20, 0.00, 0.00, 0.00, 0.00, 0.00, 0.00, 0
364267, -28067.46, -25084.91, 0.00, 0.00, 0.00, 0.00, 0.00, 0.00, 0
364268, -28052.42, -25011.62, 0.00, 0.00, 0.00, 0.00, 0.00, 0.00, 0
364269, -28239.55, -25458.08, 0.00, 0.00, 0.00, 0.00, 0.00, 0.00, 0
364270, -28284.54, -25592.81, 0.00, 0.00, 0.00, 0.00, 0.00, 0.00, 0
364271, -28095.29, -25145.51, 0.00, 0.00, 0.00, 0.00, 0.00, 0.00, 0
364272, -28015.94, -24951.01, 0.00, 0.00, 0.00, 0.00, 0.00, 0.00, 0
364273, -28172.79, -25343.10, 0.00, 0.00, 0.00, 0.00, 0.00, 0.00, 0
364274, -28263.40, -25586.67, 0.00, 0.00, 0.00, 0.00, 0.00, 0.00, 0
364275, -28114.00, -25223.90, 0.00, 0.00, 0.00, 0.00, 0.00, 0.00, 0
364276, -28007.45, -24945.64, 0.00, 0.00, 0.00, 0.00, 0.00, 0.00, 0
364277, -28142.68, -25247.23, 0.00, 0.00, 0.00, 0.00, 0.00, 0.00, 0
364278, -28276.21, -25591.49, 0.00, 0.00, 0.00, 0.00, 0.00, 0.00, 0
364279, -28149.16, -25318.92, 0.00, 0.00, 0.00, 0.00, 0.00, 0.00, 0
364280, -28012.35, -24961.06, 0.00, 0.00, 0.00, 0.00, 0.00, 0.00, 0
364281, -28117.69, -25183.26, 0.00, 0.00, 0.00, 0.00, 0.00, 0.00, 0
364282, -28274.53, -25584.86, 0.00, 0.00, 0.00, 0.00, 0.00, 0.00, 0
364283, -28184.77, -25396.81, 0.00, 0.00, 0.00, 0.00, 0.00, 0.00, 0
364284, -28015.99, -24986.10, 0.00, 0.00, 0.00, 0.00, 0.00, 0.00, 0
364285, -28079.60, -25118.60, 0.00, 0.00, 0.00, 0.00, 0.00, 0.00, 0
364286, -28258.42, -25556.63, 0.00, 0.00, 0.00, 0.00, 0.00, 0.00, 0
364287, -28213.71, -25471.55, 0.00, 0.00, 0.00, 0.00, 0.00, 0.00, 0
364288, -28035.32, -25009.25, 0.00, 0.00, 0.00, 0.00, 0.00, 0.00, 0
364289, -28057.90, -25039.18, 0.00, 0.00, 0.00, 0.00, 0.00, 0.00, 0
364290, -28236.98, -25498.02, 0.00, 0.00, 0.00, 0.00, 0.00, 0.00, 0
364291, -28253.63, -25549.07, 0.00, 0.00, 0.00, 0.00, 0.00, 0.00, 0
364292, -28064.25, -25103.73, 0.00, 0.00, 0.00, 0.00, 0.00, 0.00, 0
364293, -28028.73, -25002.64, 0.00, 0.00, 0.00, 0.00, 0.00, 0.00, 0
364294, -28202.78, -25421.58, 0.00, 0.00, 0.00, 0.00, 0.00, 0.00, 0
364295, -28266.33, -25576.45, 0.00, 0.00, 0.00, 0.00, 0.00, 0.00, 0
364296, -28086.66, -25134.80, 0.00, 0.00, 0.00, 0.00, 0.00, 0.00, 0
364297, -28007.61, -24947.92, 0.00, 0.00, 0.00, 0.00, 0.00, 0.00, 0
364298, -28173.50, -25346.23, 0.00, 0.00, 0.00, 0.00, 0.00, 0.00, 0
364299, -28281.95, -25613.33, 0.00, 0.00, 0.00, 0.00, 0.00, 0.00, 0
364300, -28136.42, -25265.27, 0.00, 0.00, 0.00, 0.00, 0.00, 0.00, 0
364301, -28012.90, -24961.35, 0.00, 0.00, 0.00, 0.00, 0.00, 0.00, 0
364302, -28138.74, -25244.06, 0.00, 0.00, 0.00, 0.00, 0.00, 0.00, 0
364303, -28267.60, -25588.70, 0.00, 0.00, 0.00, 0.00, 0.00, 0.00, 0
364304, -28152.13, -25339.03, 0.00, 0.00, 0.00, 0.00, 0.00, 0.00, 0
364305, -27998.71, -24955.92, 0.00, 0.00, 0.00, 0.00, 0.00, 0.00, 0
364306, -28099.25, -25165.65, 0.00, 0.00, 0.00, 0.00, 0.00, 0.00, 0
364307, -28266.91, -25588.75, 0.00, 0.00, 0.00, 0.00, 0.00, 0.00, 0
364308, -28192.39, -25428.08, 0.00, 0.00, 0.00, 0.00, 0.00, 0.00, 0
364309, -28013.42, -24983.35, 0.00, 0.00, 0.00, 0.00, 0.00, 0.00, 0
364310, -28061.63, -25075.46, 0.00, 0.00, 0.00, 0.00, 0.00, 0.00, 0
364311, -28243.19, -25527.28, 0.00, 0.00, 0.00, 0.00, 0.00, 0.00, 0
364312, -28220.84, -25496.43, 0.00, 0.00, 0.00, 0.00, 0.00, 0.00, 0
364313, -28027.01, -25036.26, 0.00, 0.00, 0.00, 0.00, 0.00, 0.00, 0
364314, -28040.08, -25025.82, 0.00, 0.00, 0.00, 0.00, 0.00, 0.00, 0
364315, -28219.70, -25464.02, 0.00, 0.00, 0.00, 0.00, 0.00, 0.00, 0
364316, -28245.43, -25541.76, 0.00, 0.00, 0.00, 0.00, 0.00, 0.00, 0
364317, -28063.82, -25100.70, 0.00, 0.00, 0.00, 0.00, 0.00, 0.00, 0
364318, -28017.55, -24982.37, 0.00, 0.00, 0.00, 0.00, 0.00, 0.00, 0
364319, -28191.70, -25399.34, 0.00, 0.00, 0.00, 0.00, 0.00, 0.00, 0
364320, -28264.21, -25592.01, 0.00, 0.00, 0.00, 0.00, 0.00, 0.00, 0
364321, -28089.26, -25183.29, 0.00, 0.00, 0.00, 0.00, 0.00, 0.00, 0
364322, -27993.70, -24939.25, 0.00, 0.00, 0.00, 0.00, 0.00, 0.00, 0
364323, -28144.42, -25286.42, 0.00, 0.00, 0.00, 0.00, 0.00, 0.00, 0
364324, -28265.66, -25598.02, 0.00, 0.00, 0.00, 0.00, 0.00, 0.00, 0
364325, -28126.72, -25282.04, 0.00, 0.00, 0.00, 0.00, 0.00, 0.00, 0
364326, -27997.41, -24944.14, 0.00, 0.00, 0.00, 0.00, 0.00, 0.00, 0
364327, -28119.75, -25217.84, 0.00, 0.00, 0.00, 0.00, 0.00, 0.00, 0
364328, -28270.84, -25605.44, 0.00, 0.00, 0.00, 0.00, 0.00, 0.00, 0
364329, -28155.82, -25351.44, 0.00, 0.00, 0.00, 0.00, 0.00, 0.00, 0
364330, -27995.25, -24950.16, 0.00, 0.00, 0.00, 0.00, 0.00, 0.00, 0
364331, -28087.13, -25144.35, 0.00, 0.00, 0.00, 0.00, 0.00, 0.00, 0
364332, -28258.77, -25581.82, 0.00, 0.00, 0.00, 0.00, 0.00, 0.00, 0
364333, -28187.13, -25431.08, 0.00, 0.00, 0.00, 0.00, 0.00, 0.00, 0
364334, -28000.23, -24975.75, 0.00, 0.00, 0.00, 0.00, 0.00, 0.00, 0
364335, -28054.23, -25055.21, 0.00, 0.00, 0.00, 0.00, 0.00, 0.00, 0
364336, -28237.36, -25514.13, 0.00, 0.00, 0.00, 0.00, 0.00, 0.00, 0
364337, -28217.20, -25498.02, 0.00, 0.00, 0.00, 0.00, 0.00, 0.00, 0
364338, -28018.94, -25016.92, 0.00, 0.00, 0.00, 0.00, 0.00, 0.00, 0
364339, -28025.89, -25000.11, 0.00, 0.00, 0.00, 0.00, 0.00, 0.00, 0
364340, -28214.29, -25462.59, 0.00, 0.00, 0.00, 0.00, 0.00, 0.00, 0
364341, -28249.63, -25559.82, 0.00, 0.00, 0.00, 0.00, 0.00, 0.00, 0
364342, -28063.98, -25108.36, 0.00, 0.00, 0.00, 0.00, 0.00, 0.00, 0
364343, -28009.93, -24955.97, 0.00, 0.00, 0.00, 0.00, 0.00, 0.00, 0
364344, -28193.06, -25366.97, 0.00, 0.00, 0.00, 0.00, 0.00, 0.00, 0
364345, -28280.63, -25600.08, 0.00, 0.00, 0.00, 0.00, 0.00, 0.00, 0
364346, -28111.61, -25193.92, 0.00, 0.00, 0.00, 0.00, 0.00, 0.00, 0
364347, -28012.59, -24934.96, 0.00, 0.00, 0.00, 0.00, 0.00, 0.00, 0
364348, -28156.22, -25276.04, 0.00, 0.00, 0.00, 0.00, 0.00, 0.00, 0
364349, -28274.98, -25592.39, 0.00, 0.00, 0.00, 0.00, 0.00, 0.00, 0
364350, -28138.43, -25271.80, 0.00, 0.00, 0.00, 0.00, 0.00, 0.00, 0
364351, -28002.06, -24924.12, 0.00, 0.00, 0.00, 0.00, 0.00, 0.00, 0
364352, -28120.26, -25193.39, 0.00, 0.00, 0.00, 0.00, 0.00, 0.00, 0
364353, -28273.23, -25592.05, 0.00, 0.00, 0.00, 0.00, 0.00, 0.00, 0
364354, -28173.63, -25366.26, 0.00, 0.00, 0.00, 0.00, 0.00, 0.00, 0
364355, -28003.02, -24939.23, 0.00, 0.00, 0.00, 0.00, 0.00, 0.00, 0
364356, -28082.98, -25111.67, 0.00, 0.00, 0.00, 0.00, 0.00, 0.00, 0
364357, -28259.06, -25555.42, 0.00, 0.00, 0.00, 0.00, 0.00, 0.00, 0
364358, -28206.31, -25435.30, 0.00, 0.00, 0.00, 0.00, 0.00, 0.00, 0
364359, -28009.02, -24993.88, 0.00, 0.00, 0.00, 0.00, 0.00, 0.00, 0
364360, -28032.62, -25050.94, 0.00, 0.00, 0.00, 0.00, 0.00, 0.00, 0
364361, -28237.34, -25510.20, 0.00, 0.00, 0.00, 0.00, 0.00, 0.00, 0
364362, -28241.03, -25527.19, 0.00, 0.00, 0.00, 0.00, 0.00, 0.00, 0
364363, -28041.89, -25059.28, 0.00, 0.00, 0.00, 0.00, 0.00, 0.00, 0
364364, -28021.96, -24987.08, 0.00, 0.00, 0.00, 0.00, 0.00, 0.00, 0
364365, -28205.53, -25437.22, 0.00, 0.00, 0.00, 0.00, 0.00, 0.00, 0
364366, -28254.01, -25570.75, 0.00, 0.00, 0.00, 0.00, 0.00, 0.00, 0
364367, -28070.75, -25142.11, 0.00, 0.00, 0.00, 0.00, 0.00, 0.00, 0
364368, -28004.63, -24971.23, 0.00, 0.00, 0.00, 0.00, 0.00, 0.00, 0
364369, -28160.49, -25354.32, 0.00, 0.00, 0.00, 0.00, 0.00, 0.00, 0
364370, -28265.39, -25602.49, 0.00, 0.00, 0.00, 0.00, 0.00, 0.00, 0
364371, -28110.13, -25222.09, 0.00, 0.00, 0.00, 0.00, 0.00, 0.00, 0
364372, -27997.48, -24938.44, 0.00, 0.00, 0.00, 0.00, 0.00, 0.00, 0
364373, -28134.27, -25268.67, 0.00, 0.00, 0.00, 0.00, 0.00, 0.00, 0
364374, -28267.11, -25612.44, 0.00, 0.00, 0.00, 0.00, 0.00, 0.00, 0
364375, -28133.25, -25308.59, 0.00, 0.00, 0.00, 0.00, 0.00, 0.00, 0
364376, -27987.31, -24935.67, 0.00, 0.00, 0.00, 0.00, 0.00, 0.00, 0
364377, -28101.57, -25180.04, 0.00, 0.00, 0.00, 0.00, 0.00, 0.00, 0
364378, -28270.57, -25595.09, 0.00, 0.00, 0.00, 0.00, 0.00, 0.00, 0
364379, -28177.66, -25389.37, 0.00, 0.00, 0.00, 0.00, 0.00, 0.00, 0
364380, -27991.67, -24933.17, 0.00, 0.00, 0.00, 0.00, 0.00, 0.00, 0
364381, -28067.51, -25081.23, 0.00, 0.00, 0.00, 0.00, 0.00, 0.00, 0
364382, -28258.08, -25567.53, 0.00, 0.00, 0.00, 0.00, 0.00, 0.00, 0
364383, -28212.01, -25491.43, 0.00, 0.00, 0.00, 0.00, 0.00, 0.00, 0
364384, -28018.13, -25021.84, 0.00, 0.00, 0.00, 0.00, 0.00, 0.00, 0
364385, -28049.83, -25055.39, 0.00, 0.00, 0.00, 0.00, 0.00, 0.00, 0
364386, -28231.19, -25517.35, 0.00, 0.00, 0.00, 0.00, 0.00, 0.00, 0
364387, -28238.46, -25554.23, 0.00, 0.00, 0.00, 0.00, 0.00, 0.00, 0
364388, -28041.54, -25079.21, 0.00, 0.00, 0.00, 0.00, 0.00, 0.00, 0
364389, -28021.96, -24990.28, 0.00, 0.00, 0.00, 0.00, 0.00, 0.00, 0
364390, -28198.94, -25428.69, 0.00, 0.00, 0.00, 0.00, 0.00, 0.00, 0
364391, -28251.46, -25585.77, 0.00, 0.00, 0.00, 0.00, 0.00, 0.00, 0
364392, -28064.29, -25140.55, 0.00, 0.00, 0.00, 0.00, 0.00, 0.00, 0
364393, -27998.02, -24941.86, 0.00, 0.00, 0.00, 0.00, 0.00, 0.00, 0
364394, -28162.01, -25338.76, 0.00, 0.00, 0.00, 0.00, 0.00, 0.00, 0
364395, -28262.01, -25604.12, 0.00, 0.00, 0.00, 0.00, 0.00, 0.00, 0
364396, -28103.81, -25230.56, 0.00, 0.00, 0.00, 0.00, 0.00, 0.00, 0
364397, -27992.65, -24935.34, 0.00, 0.00, 0.00, 0.00, 0.00, 0.00, 0
364398, -28126.79, -25247.05, 0.00, 0.00, 0.00, 0.00, 0.00, 0.00, 0
364399, -28260.99, -25601.13, 0.00, 0.00, 0.00, 0.00, 0.00, 0.00, 0
364400, -28136.06, -25317.69, 0.00, 0.00, 0.00, 0.00, 0.00, 0.00, 0
364401, -27973.25, -24927.80, 0.00, 0.00, 0.00, 0.00, 0.00, 0.00, 0
364402, -28082.64, -25145.42, 0.00, 0.00, 0.00, 0.00, 0.00, 0.00, 0
364403, -28255.49, -25564.85, 0.00, 0.00, 0.00, 0.00, 0.00, 0.00, 0
364404, -28176.99, -25403.29, 0.00, 0.00, 0.00, 0.00, 0.00, 0.00, 0
364405, -28000.03, -24980.93, 0.00, 0.00, 0.00, 0.00, 0.00, 0.00, 0
364406, -28064.02, -25094.95, 0.00, 0.00, 0.00, 0.00, 0.00, 0.00, 0
364407, -28241.72, -25557.14, 0.00, 0.00, 0.00, 0.00, 0.00, 0.00, 0
364408, -28214.52, -25503.52, 0.00, 0.00, 0.00, 0.00, 0.00, 0.00, 0
364409, -28022.61, -25027.83, 0.00, 0.00, 0.00, 0.00, 0.00, 0.00, 0
364410, -28032.82, -25027.74, 0.00, 0.00, 0.00, 0.00, 0.00, 0.00, 0
364411, -28217.22, -25488.59, 0.00, 0.00, 0.00, 0.00, 0.00, 0.00, 0
364412, -28232.22, -25548.80, 0.00, 0.00, 0.00, 0.00, 0.00, 0.00, 0
364413, -28039.10, -25081.38, 0.00, 0.00, 0.00, 0.00, 0.00, 0.00, 0
364414, -28002.91, -24969.87, 0.00, 0.00, 0.00, 0.00, 0.00, 0.00, 0
364415, -28180.43, -25408.28, 0.00, 0.00, 0.00, 0.00, 0.00, 0.00, 0
364416, -28255.38, -25597.33, 0.00, 0.00, 0.00, 0.00, 0.00, 0.00, 0
364417, -28078.06, -25174.37, 0.00, 0.00, 0.00, 0.00, 0.00, 0.00, 0
364418, -27994.35, -24953.73, 0.00, 0.00, 0.00, 0.00, 0.00, 0.00, 0
364419, -28149.61, -25314.42, 0.00, 0.00, 0.00, 0.00, 0.00, 0.00, 0
364420, -28264.61, -25591.99, 0.00, 0.00, 0.00, 0.00, 0.00, 0.00, 0
364421, -28114.18, -25242.76, 0.00, 0.00, 0.00, 0.00, 0.00, 0.00, 0
364422, -27984.23, -24919.33, 0.00, 0.00, 0.00, 0.00, 0.00, 0.00, 0
364423, -28123.75, -25225.46, 0.00, 0.00, 0.00, 0.00, 0.00, 0.00, 0
364424, -28271.00, -25602.09, 0.00, 0.00, 0.00, 0.00, 0.00, 0.00, 0
364425, -28148.76, -25333.80, 0.00, 0.00, 0.00, 0.00, 0.00, 0.00, 0
364426, -27984.63, -24941.62, 0.00, 0.00, 0.00, 0.00, 0.00, 0.00, 0
364427, -28075.87, -25147.32, 0.00, 0.00, 0.00, 0.00, 0.00, 0.00, 0
364428, -28245.21, -25570.98, 0.00, 0.00, 0.00, 0.00, 0.00, 0.00, 0
364429, -28175.74, -25411.36, 0.00, 0.00, 0.00, 0.00, 0.00, 0.00, 0
364430, -27991.00, -24957.42, 0.00, 0.00, 0.00, 0.00, 0.00, 0.00, 0
364431, -28044.78, -25057.22, 0.00, 0.00, 0.00, 0.00, 0.00, 0.00, 0
364432, -28233.16, -25527.90, 0.00, 0.00, 0.00, 0.00, 0.00, 0.00, 0
364433, -28211.74, -25490.85, 0.00, 0.00, 0.00, 0.00, 0.00, 0.00, 0
364434, -28020.64, -25023.80, 0.00, 0.00, 0.00, 0.00, 0.00, 0.00, 0
364435, -28021.31, -25001.86, 0.00, 0.00, 0.00, 0.00, 0.00, 0.00, 0
364436, -28209.42, -25457.72, 0.00, 0.00, 0.00, 0.00, 0.00, 0.00, 0
364437, -28237.63, -25557.30, 0.00, 0.00, 0.00, 0.00, 0.00, 0.00, 0
364438, -28049.83, -25111.60, 0.00, 0.00, 0.00, 0.00, 0.00, 0.00, 0
364439, -28002.69, -24970.72, 0.00, 0.00, 0.00, 0.00, 0.00, 0.00, 0
364440, -28170.15, -25387.94, 0.00, 0.00, 0.00, 0.00, 0.00, 0.00, 0
364441, -28246.46, -25596.70, 0.00, 0.00, 0.00, 0.00, 0.00, 0.00, 0
364442, -28075.64, -25183.98, 0.00, 0.00, 0.00, 0.00, 0.00, 0.00, 0
364443, -27982.95, -24942.78, 0.00, 0.00, 0.00, 0.00, 0.00, 0.00, 0
364444, -28139.66, -25301.12, 0.00, 0.00, 0.00, 0.00, 0.00, 0.00, 0
364445, -28265.61, -25603.79, 0.00, 0.00, 0.00, 0.00, 0.00, 0.00, 0
364446, -28119.68, -25267.80, 0.00, 0.00, 0.00, 0.00, 0.00, 0.00, 0
364447, -27984.34, -24929.10, 0.00, 0.00, 0.00, 0.00, 0.00, 0.00, 0
364448, -28109.26, -25194.53, 0.00, 0.00, 0.00, 0.00, 0.00, 0.00, 0
364449, -28272.14, -25596.10, 0.00, 0.00, 0.00, 0.00, 0.00, 0.00, 0
364450, -28164.70, -25357.49, 0.00, 0.00, 0.00, 0.00, 0.00, 0.00, 0
364451, -27992.23, -24938.98, 0.00, 0.00, 0.00, 0.00, 0.00, 0.00, 0
364452, -28073.57, -25113.70, 0.00, 0.00, 0.00, 0.00, 0.00, 0.00, 0
364453, -28247.55, -25567.36, 0.00, 0.00, 0.00, 0.00, 0.00, 0.00, 0
364454, -28190.91, -25434.90, 0.00, 0.00, 0.00, 0.00, 0.00, 0.00, 0
364455, -28005.73, -24979.86, 0.00, 0.00, 0.00, 0.00, 0.00, 0.00, 0
364456, -28043.93, -25063.95, 0.00, 0.00, 0.00, 0.00, 0.00, 0.00, 0
364457, -28229.29, -25520.04, 0.00, 0.00, 0.00, 0.00, 0.00, 0.00, 0
364458, -28220.06, -25519.48, 0.00, 0.00, 0.00, 0.00, 0.00, 0.00, 0
364459, -28024.37, -25053.82, 0.00, 0.00, 0.00, 0.00, 0.00, 0.00, 0
364460, -28019.36, -25001.79, 0.00, 0.00, 0.00, 0.00, 0.00, 0.00, 0
364461, -28207.65, -25450.79, 0.00, 0.00, 0.00, 0.00, 0.00, 0.00, 0
364462, -28240.51, -25564.74, 0.00, 0.00, 0.00, 0.00, 0.00, 0.00, 0
364463, -28058.63, -25113.55, 0.00, 0.00, 0.00, 0.00, 0.00, 0.00, 0
364464, -28001.55, -24953.33, 0.00, 0.00, 0.00, 0.00, 0.00, 0.00, 0
364465, -28167.76, -25361.83, 0.00, 0.00, 0.00, 0.00, 0.00, 0.00, 0
364466, -28264.99, -25594.89, 0.00, 0.00, 0.00, 0.00, 0.00, 0.00, 0
364467, -28101.08, -25204.14, 0.00, 0.00, 0.00, 0.00, 0.00, 0.00, 0
364468, -27993.70, -24937.59, 0.00, 0.00, 0.00, 0.00, 0.00, 0.00, 0
364469, -28137.16, -25274.93, 0.00, 0.00, 0.00, 0.00, 0.00, 0.00, 0
364470, -28264.92, -25600.97, 0.00, 0.00, 0.00, 0.00, 0.00, 0.00, 0
364471, -28125.85, -25274.32, 0.00, 0.00, 0.00, 0.00, 0.00, 0.00, 0
364472, -27981.03, -24916.16, 0.00, 0.00, 0.00, 0.00, 0.00, 0.00, 0
364473, -28089.01, -25184.51, 0.00, 0.00, 0.00, 0.00, 0.00, 0.00, 0
364474, -28249.10, -25599.27, 0.00, 0.00, 0.00, 0.00, 0.00, 0.00, 0
364475, -28158.37, -25376.85, 0.00, 0.00, 0.00, 0.00, 0.00, 0.00, 0
364476, -27993.90, -24949.89, 0.00, 0.00, 0.00, 0.00, 0.00, 0.00, 0
364477, -28070.44, -25102.97, 0.00, 0.00, 0.00, 0.00, 0.00, 0.00, 0
364478, -28244.83, -25549.79, 0.00, 0.00, 0.00, 0.00, 0.00, 0.00, 0
364479, -28191.61, -25451.91, 0.00, 0.00, 0.00, 0.00, 0.00, 0.00, 0
364480, -28002.55, -24999.80, 0.00, 0.00, 0.00, 0.00, 0.00, 0.00, 0
364481, -28031.48, -25037.93, 0.00, 0.00, 0.00, 0.00, 0.00, 0.00, 0
364482, -28208.95, -25503.43, 0.00, 0.00, 0.00, 0.00, 0.00, 0.00, 0
364483, -28211.41, -25543.28, 0.00, 0.00, 0.00, 0.00, 0.00, 0.00, 0
364484, -28024.04, -25077.56, 0.00, 0.00, 0.00, 0.00, 0.00, 0.00, 0
364485, -28012.68, -25004.76, 0.00, 0.00, 0.00, 0.00, 0.00, 0.00, 0
364486, -28189.21, -25435.70, 0.00, 0.00, 0.00, 0.00, 0.00, 0.00, 0
364487, -28235.48, -25567.62, 0.00, 0.00, 0.00, 0.00, 0.00, 0.00, 0
364488, -28058.12, -25137.35, 0.00, 0.00, 0.00, 0.00, 0.00, 0.00, 0
364489, -27993.46, -24957.24, 0.00, 0.00, 0.00, 0.00, 0.00, 0.00, 0
364490, -28156.40, -25346.03, 0.00, 0.00, 0.00, 0.00, 0.00, 0.00, 0
364491, -28252.47, -25585.46, 0.00, 0.00, 0.00, 0.00, 0.00, 0.00, 0
364492, -28089.71, -25210.78, 0.00, 0.00, 0.00, 0.00, 0.00, 0.00, 0
364493, -27978.48, -24933.93, 0.00, 0.00, 0.00, 0.00, 0.00, 0.00, 0
364494, -28123.28, -25260.62, 0.00, 0.00, 0.00, 0.00, 0.00, 0.00, 0
364495, -28256.61, -25607.23, 0.00, 0.00, 0.00, 0.00, 0.00, 0.00, 0
364496, -28123.08, -25304.74, 0.00, 0.00, 0.00, 0.00, 0.00, 0.00, 0
364497, -27977.14, -24930.76, 0.00, 0.00, 0.00, 0.00, 0.00, 0.00, 0
364498, -28088.54, -25169.31, 0.00, 0.00, 0.00, 0.00, 0.00, 0.00, 0
364499, -28255.85, -25584.45, 0.00, 0.00, 0.00, 0.00, 0.00, 0.00, 0
364500, -28165.48, -25392.81, 0.00, 0.00, 0.00, 0.00, 0.00, 0.00, 0
364501, -27991.36, -24955.52, 0.00, 0.00, 0.00, 0.00, 0.00, 0.00, 0
364502, -28062.37, -25075.19, 0.00, 0.00, 0.00, 0.00, 0.00, 0.00, 0
364503, -28239.48, -25530.21, 0.00, 0.00, 0.00, 0.00, 0.00, 0.00, 0
364504, -28199.12, -25466.91, 0.00, 0.00, 0.00, 0.00, 0.00, 0.00, 0
364505, -28017.33, -25008.96, 0.00, 0.00, 0.00, 0.00, 0.00, 0.00, 0
364506, -28033.62, -25036.34, 0.00, 0.00, 0.00, 0.00, 0.00, 0.00, 0
364507, -28218.16, -25494.87, 0.00, 0.00, 0.00, 0.00, 0.00, 0.00, 0
364508, -28229.43, -25535.62, 0.00, 0.00, 0.00, 0.00, 0.00, 0.00, 0
364509, -28041.94, -25078.19, 0.00, 0.00, 0.00, 0.00, 0.00, 0.00, 0
364510, -28014.76, -24990.86, 0.00, 0.00, 0.00, 0.00, 0.00, 0.00, 0
364511, -28180.90, -25418.00, 0.00, 0.00, 0.00, 0.00, 0.00, 0.00, 0
364512, -28237.45, -25586.31, 0.00, 0.00, 0.00, 0.00, 0.00, 0.00, 0
364513, -28066.50, -25151.23, 0.00, 0.00, 0.00, 0.00, 0.00, 0.00, 0
364514, -27988.90, -24945.53, 0.00, 0.00, 0.00, 0.00, 0.00, 0.00, 0
364515, -28147.46, -25338.29, 0.00, 0.00, 0.00, 0.00, 0.00, 0.00, 0
364516, -28254.93, -25620.37, 0.00, 0.00, 0.00, 0.00, 0.00, 0.00, 0
364517, -28100.37, -25257.98, 0.00, 0.00, 0.00, 0.00, 0.00, 0.00, 0
364518, -27971.08, -24936.66, 0.00, 0.00, 0.00, 0.00, 0.00, 0.00, 0
364519, -28107.81, -25239.37, 0.00, 0.00, 0.00, 0.00, 0.00, 0.00, 0
364520, -28262.82, -25606.78, 0.00, 0.00, 0.00, 0.00, 0.00, 0.00, 0
364521, -28143.51, -25332.33, 0.00, 0.00, 0.00, 0.00, 0.00, 0.00, 0
364522, -27988.16, -24936.59, 0.00, 0.00, 0.00, 0.00, 0.00, 0.00, 0
364523, -28088.92, -25147.70, 0.00, 0.00, 0.00, 0.00, 0.00, 0.00, 0
364524, -28260.03, -25583.98, 0.00, 0.00, 0.00, 0.00, 0.00, 0.00, 0
364525, -28182.62, -25424.82, 0.00, 0.00, 0.00, 0.00, 0.00, 0.00, 0
364526, -27994.51, -24971.99, 0.00, 0.00, 0.00, 0.00, 0.00, 0.00, 0
364527, -28042.61, -25066.72, 0.00, 0.00, 0.00, 0.00, 0.00, 0.00, 0
364528, -28230.30, -25528.48, 0.00, 0.00, 0.00, 0.00, 0.00, 0.00, 0
364529, -28200.44, -25492.81, 0.00, 0.00, 0.00, 0.00, 0.00, 0.00, 0
364530, -28009.93, -25018.06, 0.00, 0.00, 0.00, 0.00, 0.00, 0.00, 0
364531, -28016.14, -24999.64, 0.00, 0.00, 0.00, 0.00, 0.00, 0.00, 0
364532, -28195.43, -25455.53, 0.00, 0.00, 0.00, 0.00, 0.00, 0.00, 0
364533, -28221.45, -25548.65, 0.00, 0.00, 0.00, 0.00, 0.00, 0.00, 0
364534, -28035.43, -25104.76, 0.00, 0.00, 0.00, 0.00, 0.00, 0.00, 0
364535, -28000.12, -24981.22, 0.00, 0.00, 0.00, 0.00, 0.00, 0.00, 0
364536, -28173.50, -25396.19, 0.00, 0.00, 0.00, 0.00, 0.00, 0.00, 0
364537, -28240.69, -25587.03, 0.00, 0.00, 0.00, 0.00, 0.00, 0.00, 0
364538, -28071.87, -25185.36, 0.00, 0.00, 0.00, 0.00, 0.00, 0.00, 0
364539, -27981.05, -24954.76, 0.00, 0.00, 0.00, 0.00, 0.00, 0.00, 0
364540, -28130.76, -25310.53, 0.00, 0.00, 0.00, 0.00, 0.00, 0.00, 0
364541, -28244.31, -25610.63, 0.00, 0.00, 0.00, 0.00, 0.00, 0.00, 0
364542, -28103.67, -25278.37, 0.00, 0.00, 0.00, 0.00, 0.00, 0.00, 0
364543, -27973.79, -24947.59, 0.00, 0.00, 0.00, 0.00, 0.00, 0.00, 0
364544, -28103.14, -25231.30, 0.00, 0.00, 0.00, 0.00, 0.00, 0.00, 0
364545, -28254.77, -25612.21, 0.00, 0.00, 0.00, 0.00, 0.00, 0.00, 0
364546, -28141.76, -25349.96, 0.00, 0.00, 0.00, 0.00, 0.00, 0.00, 0
364547, -27982.55, -24940.14, 0.00, 0.00, 0.00, 0.00, 0.00, 0.00, 0
364548, -28075.53, -25137.38, 0.00, 0.00, 0.00, 0.00, 0.00, 0.00, 0
364549, -28246.84, -25585.30, 0.00, 0.00, 0.00, 0.00, 0.00, 0.00, 0
364550, -28175.02, -25441.22, 0.00, 0.00, 0.00, 0.00, 0.00, 0.00, 0
364551, -27984.21, -24975.44, 0.00, 0.00, 0.00, 0.00, 0.00, 0.00, 0
364552, -28033.47, -25057.51, 0.00, 0.00, 0.00, 0.00, 0.00, 0.00, 0
364553, -28223.97, -25532.55, 0.00, 0.00, 0.00, 0.00, 0.00, 0.00, 0
364554, -28197.26, -25496.23, 0.00, 0.00, 0.00, 0.00, 0.00, 0.00, 0
364555, -28011.96, -25027.58, 0.00, 0.00, 0.00, 0.00, 0.00, 0.00, 0
364556, -28014.63, -25002.30, 0.00, 0.00, 0.00, 0.00, 0.00, 0.00, 0
364557, -28197.78, -25462.14, 0.00, 0.00, 0.00, 0.00, 0.00, 0.00, 0
364558, -28233.11, -25574.17, 0.00, 0.00, 0.00, 0.00, 0.00, 0.00, 0
364559, -28043.21, -25123.63, 0.00, 0.00, 0.00, 0.00, 0.00, 0.00, 0
364560, -27994.84, -24975.97, 0.00, 0.00, 0.00, 0.00, 0.00, 0.00, 0
364561, -28169.14, -25385.59, 0.00, 0.00, 0.00, 0.00, 0.00, 0.00, 0
364562, -28245.27, -25592.84, 0.00, 0.00, 0.00, 0.00, 0.00, 0.00, 0
364563, -28072.92, -25189.86, 0.00, 0.00, 0.00, 0.00, 0.00, 0.00, 0
364564, -27980.63, -24940.10, 0.00, 0.00, 0.00, 0.00, 0.00, 0.00, 0
364565, -28133.67, -25284.83, 0.00, 0.00, 0.00, 0.00, 0.00, 0.00, 0
364566, -28251.08, -25608.53, 0.00, 0.00, 0.00, 0.00, 0.00, 0.00, 0
364567, -28103.90, -25288.58, 0.00, 0.00, 0.00, 0.00, 0.00, 0.00, 0
364568, -27965.76, -24944.05, 0.00, 0.00, 0.00, 0.00, 0.00, 0.00, 0
364569, -28086.84, -25205.86, 0.00, 0.00, 0.00, 0.00, 0.00, 0.00, 0
364570, -28243.71, -25599.54, 0.00, 0.00, 0.00, 0.00, 0.00, 0.00, 0
364571, -28148.51, -25366.84, 0.00, 0.00, 0.00, 0.00, 0.00, 0.00, 0
364572, -27976.72, -24939.09, 0.00, 0.00, 0.00, 0.00, 0.00, 0.00, 0
364573, -28057.72, -25112.83, 0.00, 0.00, 0.00, 0.00, 0.00, 0.00, 0
364574, -28232.13, -25565.95, 0.00, 0.00, 0.00, 0.00, 0.00, 0.00, 0
364575, -28171.91, -25457.88, 0.00, 0.00, 0.00, 0.00, 0.00, 0.00, 0
364576, -27984.79, -24992.87, 0.00, 0.00, 0.00, 0.00, 0.00, 0.00, 0
364577, -28025.78, -25053.18, 0.00, 0.00, 0.00, 0.00, 0.00, 0.00, 0
364578, -28208.84, -25522.58, 0.00, 0.00, 0.00, 0.00, 0.00, 0.00, 0
364579, -28206.49, -25526.74, 0.00, 0.00, 0.00, 0.00, 0.00, 0.00, 0
364580, -28016.50, -25056.01, 0.00, 0.00, 0.00, 0.00, 0.00, 0.00, 0
364581, -28001.35, -24990.57, 0.00, 0.00, 0.00, 0.00, 0.00, 0.00, 0
364582, -28177.53, -25427.50, 0.00, 0.00, 0.00, 0.00, 0.00, 0.00, 0
364583, -28224.44, -25562.55, 0.00, 0.00, 0.00, 0.00, 0.00, 0.00, 0
364584, -28044.17, -25132.66, 0.00, 0.00, 0.00, 0.00, 0.00, 0.00, 0
364585, -27982.68, -24962.70, 0.00, 0.00, 0.00, 0.00, 0.00, 0.00, 0
364586, -28149.52, -25366.37, 0.00, 0.00, 0.00, 0.00, 0.00, 0.00, 0
364587, -28240.91, -25607.23, 0.00, 0.00, 0.00, 0.00, 0.00, 0.00, 0
364588, -28075.60, -25219.03, 0.00, 0.00, 0.00, 0.00, 0.00, 0.00, 0
364589, -27963.08, -24935.40, 0.00, 0.00, 0.00, 0.00, 0.00, 0.00, 0
364590, -28119.99, -25277.56, 0.00, 0.00, 0.00, 0.00, 0.00, 0.00, 0
364591, -28251.62, -25604.30, 0.00, 0.00, 0.00, 0.00, 0.00, 0.00, 0
364592, -28112.57, -25288.34, 0.00, 0.00, 0.00, 0.00, 0.00, 0.00, 0
364593, -27967.96, -24937.42, 0.00, 0.00, 0.00, 0.00, 0.00, 0.00, 0
364594, -28081.63, -25205.55, 0.00, 0.00, 0.00, 0.00, 0.00, 0.00, 0
364595, -28243.84, -25620.04, 0.00, 0.00, 0.00, 0.00, 0.00, 0.00, 0
364596, -28146.19, -25405.91, 0.00, 0.00, 0.00, 0.00, 0.00, 0.00, 0
364597, -27977.01, -24972.87, 0.00, 0.00, 0.00, 0.00, 0.00, 0.00, 0
364598, -28047.01, -25113.01, 0.00, 0.00, 0.00, 0.00, 0.00, 0.00, 0
364599, -28227.48, -25550.59, 0.00, 0.00, 0.00, 0.00, 0.00, 0.00, 0
364600, -28187.13, -25459.71, 0.00, 0.00, 0.00, 0.00, 0.00, 0.00, 0
364601, -27996.52, -24998.44, 0.00, 0.00, 0.00, 0.00, 0.00, 0.00, 0
364602, -28020.73, -25028.43, 0.00, 0.00, 0.00, 0.00, 0.00, 0.00, 0
364603, -28208.21, -25493.77, 0.00, 0.00, 0.00, 0.00, 0.00, 0.00, 0
364604, -28215.86, -25537.25, 0.00, 0.00, 0.00, 0.00, 0.00, 0.00, 0
364605, -28024.64, -25073.29, 0.00, 0.00, 0.00, 0.00, 0.00, 0.00, 0
364606, -28005.08, -24988.02, 0.00, 0.00, 0.00, 0.00, 0.00, 0.00, 0
364607, -28184.68, -25422.45, 0.00, 0.00, 0.00, 0.00, 0.00, 0.00, 0
364608, -28240.40, -25580.77, 0.00, 0.00, 0.00, 0.00, 0.00, 0.00, 0
364609, -28056.47, -25146.94, 0.00, 0.00, 0.00, 0.00, 0.00, 0.00, 0
364610, -27980.76, -24951.45, 0.00, 0.00, 0.00, 0.00, 0.00, 0.00, 0
364611, -28145.03, -25333.71, 0.00, 0.00, 0.00, 0.00, 0.00, 0.00, 0
364612, -28249.34, -25602.98, 0.00, 0.00, 0.00, 0.00, 0.00, 0.00, 0
364613, -28095.72, -25247.99, 0.00, 0.00, 0.00, 0.00, 0.00, 0.00, 0
364614, -27980.27, -24934.91, 0.00, 0.00, 0.00, 0.00, 0.00, 0.00, 0
364615, -28114.87, -25245.71, 0.00, 0.00, 0.00, 0.00, 0.00, 0.00, 0
364616, -28252.47, -25606.87, 0.00, 0.00, 0.00, 0.00, 0.00, 0.00, 0
364617, -28125.85, -25319.70, 0.00, 0.00, 0.00, 0.00, 0.00, 0.00, 0
364618, -27970.01, -24935.58, 0.00, 0.00, 0.00, 0.00, 0.00, 0.00, 0
364619, -28074.30, -25161.94, 0.00, 0.00, 0.00, 0.00, 0.00, 0.00, 0
364620, -28246.08, -25599.50, 0.00, 0.00, 0.00, 0.00, 0.00, 0.00, 0
364621, -28158.66, -25416.28, 0.00, 0.00, 0.00, 0.00, 0.00, 0.00, 0
364622, -27971.06, -24965.20, 0.00, 0.00, 0.00, 0.00, 0.00, 0.00, 0
364623, -28038.70, -25092.07, 0.00, 0.00, 0.00, 0.00, 0.00, 0.00, 0
364624, -28221.24, -25550.03, 0.00, 0.00, 0.00, 0.00, 0.00, 0.00, 0
364625, -28187.70, -25487.16, 0.00, 0.00, 0.00, 0.00, 0.00, 0.00, 0
364626, -27996.61, -25019.69, 0.00, 0.00, 0.00, 0.00, 0.00, 0.00, 0
364627, -28017.11, -25030.71, 0.00, 0.00, 0.00, 0.00, 0.00, 0.00, 0
364628, -28200.01, -25483.76, 0.00, 0.00, 0.00, 0.00, 0.00, 0.00, 0
364629, -28209.93, -25547.53, 0.00, 0.00, 0.00, 0.00, 0.00, 0.00, 0
364630, -28017.64, -25086.23, 0.00, 0.00, 0.00, 0.00, 0.00, 0.00, 0
364631, -27986.95, -24972.75, 0.00, 0.00, 0.00, 0.00, 0.00, 0.00, 0
364632, -28161.74, -25403.45, 0.00, 0.00, 0.00, 0.00, 0.00, 0.00, 0
364633, -28230.79, -25592.28, 0.00, 0.00, 0.00, 0.00, 0.00, 0.00, 0
364634, -28053.45, -25176.91, 0.00, 0.00, 0.00, 0.00, 0.00, 0.00, 0
364635, -27973.14, -24961.24, 0.00, 0.00, 0.00, 0.00, 0.00, 0.00, 0
364636, -28131.32, -25328.26, 0.00, 0.00, 0.00, 0.00, 0.00, 0.00, 0
364637, -28241.18, -25610.31, 0.00, 0.00, 0.00, 0.00, 0.00, 0.00, 0
364638, -28091.65, -25259.59, 0.00, 0.00, 0.00, 0.00, 0.00, 0.00, 0
364639, -27965.09, -24942.85, 0.00, 0.00, 0.00, 0.00, 0.00, 0.00, 0
364640, -28097.44, -25238.05, 0.00, 0.00, 0.00, 0.00, 0.00, 0.00, 0
364641, -28245.47, -25609.04, 0.00, 0.00, 0.00, 0.00, 0.00, 0.00, 0
364642, -28128.42, -25341.04, 0.00, 0.00, 0.00, 0.00, 0.00, 0.00, 0
364643, -27971.11, -24953.93, 0.00, 0.00, 0.00, 0.00, 0.00, 0.00, 0
364644, -28056.18, -25154.07, 0.00, 0.00, 0.00, 0.00, 0.00, 0.00, 0
364645, -28225.02, -25583.00, 0.00, 0.00, 0.00, 0.00, 0.00, 0.00, 0
364646, -28150.37, -25418.92, 0.00, 0.00, 0.00, 0.00, 0.00, 0.00, 0
364647, -27972.74, -24969.69, 0.00, 0.00, 0.00, 0.00, 0.00, 0.00, 0
364648, -28029.85, -25075.48, 0.00, 0.00, 0.00, 0.00, 0.00, 0.00, 0
364649, -28214.38, -25544.18, 0.00, 0.00, 0.00, 0.00, 0.00, 0.00, 0
364650, -28193.84, -25508.97, 0.00, 0.00, 0.00, 0.00, 0.00, 0.00, 0
364651, -28006.13, -25037.73, 0.00, 0.00, 0.00, 0.00, 0.00, 0.00, 0
364652, -28014.92, -25023.16, 0.00, 0.00, 0.00, 0.00, 0.00, 0.00, 0
364653, -28198.67, -25482.80, 0.00, 0.00, 0.00, 0.00, 0.00, 0.00, 0
364654, -28223.01, -25575.11, 0.00, 0.00, 0.00, 0.00, 0.00, 0.00, 0
364655, -28029.82, -25111.85, 0.00, 0.00, 0.00, 0.00, 0.00, 0.00, 0
364656, -27977.86, -24972.06, 0.00, 0.00, 0.00, 0.00, 0.00, 0.00, 0
364657, -28156.18, -25402.73, 0.00, 0.00, 0.00, 0.00, 0.00, 0.00, 0
364658, -28237.61, -25614.41, 0.00, 0.00, 0.00, 0.00, 0.00, 0.00, 0
364659, -28063.60, -25191.55, 0.00, 0.00, 0.00, 0.00, 0.00, 0.00, 0
364660, -27970.01, -24946.60, 0.00, 0.00, 0.00, 0.00, 0.00, 0.00, 0
364661, -28123.50, -25309.37, 0.00, 0.00, 0.00, 0.00, 0.00, 0.00, 0
364662, -28244.31, -25626.03, 0.00, 0.00, 0.00, 0.00, 0.00, 0.00, 0
364663, -28095.61, -25299.69, 0.00, 0.00, 0.00, 0.00, 0.00, 0.00, 0
364664, -27956.78, -24950.74, 0.00, 0.00, 0.00, 0.00, 0.00, 0.00, 0
364665, -28083.27, -25221.64, 0.00, 0.00, 0.00, 0.00, 0.00, 0.00, 0
364666, -28239.51, -25599.90, 0.00, 0.00, 0.00, 0.00, 0.00, 0.00, 0
364667, -28135.62, -25370.08, 0.00, 0.00, 0.00, 0.00, 0.00, 0.00, 0
364668, -27969.47, -24972.06, 0.00, 0.00, 0.00, 0.00, 0.00, 0.00, 0
364669, -28055.33, -25147.54, 0.00, 0.00, 0.00, 0.00, 0.00, 0.00, 0
364670, -28228.15, -25579.96, 0.00, 0.00, 0.00, 0.00, 0.00, 0.00, 0
364671, -28161.01, -25448.18, 0.00, 0.00, 0.00, 0.00, 0.00, 0.00, 0
364672, -27975.31, -24994.90, 0.00, 0.00, 0.00, 0.00, 0.00, 0.00, 0
364673, -28022.76, -25064.06, 0.00, 0.00, 0.00, 0.00, 0.00, 0.00, 0
364674, -28208.44, -25528.02, 0.00, 0.00, 0.00, 0.00, 0.00, 0.00, 0
364675, -28196.03, -25528.51, 0.00, 0.00, 0.00, 0.00, 0.00, 0.00, 0
364676, -28001.53, -25064.08, 0.00, 0.00, 0.00, 0.00, 0.00, 0.00, 0
364677, -27993.26, -25018.96, 0.00, 0.00, 0.00, 0.00, 0.00, 0.00, 0
364678, -28175.36, -25464.69, 0.00, 0.00, 0.00, 0.00, 0.00, 0.00, 0
364679, -28215.70, -25577.53, 0.00, 0.00, 0.00, 0.00, 0.00, 0.00, 0
364680, -28023.32, -25130.80, 0.00, 0.00, 0.00, 0.00, 0.00, 0.00, 0
364681, -27964.85, -24971.84, 0.00, 0.00, 0.00, 0.00, 0.00, 0.00, 0
364682, -28132.62, -25371.75, 0.00, 0.00, 0.00, 0.00, 0.00, 0.00, 0
364683, -28224.31, -25611.72, 0.00, 0.00, 0.00, 0.00, 0.00, 0.00, 0
364684, -28055.35, -25217.17, 0.00, 0.00, 0.00, 0.00, 0.00, 0.00, 0
364685, -27951.95, -24944.37, 0.00, 0.00, 0.00, 0.00, 0.00, 0.00, 0
364686, -28100.28, -25286.01, 0.00, 0.00, 0.00, 0.00, 0.00, 0.00, 0
364687, -28226.07, -25610.74, 0.00, 0.00, 0.00, 0.00, 0.00, 0.00, 0
364688, -28086.42, -25296.72, 0.00, 0.00, 0.00, 0.00, 0.00, 0.00, 0
364689, -27939.88, -24941.17, 0.00, 0.00, 0.00, 0.00, 0.00, 0.00, 0
364690, -28047.86, -25199.69, 0.00, 0.00, 0.00, 0.00, 0.00, 0.00, 0
364691, -28197.93, -25591.70, 0.00, 0.00, 0.00, 0.00, 0.00, 0.00, 0
364692, -28091.47, -25380.56, 0.00, 0.00, 0.00, 0.00, 0.00, 0.00, 0
364693, -27916.75, -24975.10, 0.00, 0.00, 0.00, 0.00, 0.00, 0.00, 0
364694, -27993.97, -25133.98, 0.00, 0.00, 0.00, 0.00, 0.00, 0.00, 0
364695, -28157.41, -25577.70, 0.00, 0.00, 0.00, 0.00, 0.00, 0.00, 0
364696, -28094.96, -25470.17, 0.00, 0.00, 0.00, 0.00, 0.00, 0.00, 0
364697, -27904.97, -25002.93, 0.00, 0.00, 0.00, 0.00, 0.00, 0.00, 0
364698, -27932.13, -25041.87, 0.00, 0.00, 0.00, 0.00, 0.00, 0.00, 0
364699, -28107.90, -25498.33, 0.00, 0.00, 0.00, 0.00, 0.00, 0.00, 0
364700, -28100.05, -25524.89, 0.00, 0.00, 0.00, 0.00, 0.00, 0.00, 0
364701, -27900.38, -25071.86, 0.00, 0.00, 0.00, 0.00, 0.00, 0.00, 0
364702, -27878.21, -25005.34, 0.00, 0.00, 0.00, 0.00, 0.00, 0.00, 0
364703, -28050.43, -25446.37, 0.00, 0.00, 0.00, 0.00, 0.00, 0.00, 0
364704, -28086.78, -25580.14, 0.00, 0.00, 0.00, 0.00, 0.00, 0.00, 0
364705, -27893.08, -25133.87, 0.00, 0.00, 0.00, 0.00, 0.00, 0.00, 0
364706, -27817.79, -24954.16, 0.00, 0.00, 0.00, 0.00, 0.00, 0.00, 0
364707, -27971.75, -25345.45, 0.00, 0.00, 0.00, 0.00, 0.00, 0.00, 0
364708, -28064.98, -25606.36, 0.00, 0.00, 0.00, 0.00, 0.00, 0.00, 0
364709, -27897.90, -25226.60, 0.00, 0.00, 0.00, 0.00, 0.00, 0.00, 0
364710, -27779.84, -24931.74, 0.00, 0.00, 0.00, 0.00, 0.00, 0.00, 0
364711, -27921.78, -25248.35, 0.00, 0.00, 0.00, 0.00, 0.00, 0.00, 0
364712, -28056.04, -25590.89, 0.00, 0.00, 0.00, 0.00, 0.00, 0.00, 0
364713, -27913.01, -25300.27, 0.00, 0.00, 0.00, 0.00, 0.00, 0.00, 0
364714, -27756.33, -24923.18, 0.00, 0.00, 0.00, 0.00, 0.00, 0.00, 0
364715, -27862.37, -25156.87, 0.00, 0.00, 0.00, 0.00, 0.00, 0.00, 0
364716, -28020.06, -25568.52, 0.00, 0.00, 0.00, 0.00, 0.00, 0.00, 0
364717, -27935.37, -25383.13, 0.00, 0.00, 0.00, 0.00, 0.00, 0.00, 0
364718, -27754.25, -24958.54, 0.00, 0.00, 0.00, 0.00, 0.00, 0.00, 0
364719, -27814.44, -25089.32, 0.00, 0.00, 0.00, 0.00, 0.00, 0.00, 0
364720, -27992.45, -25534.39, 0.00, 0.00, 0.00, 0.00, 0.00, 0.00, 0
364721, -27952.91, -25450.48, 0.00, 0.00, 0.00, 0.00, 0.00, 0.00, 0
364722, -27762.86, -24985.58, 0.00, 0.00, 0.00, 0.00, 0.00, 0.00, 0
364723, -27784.83, -25021.39, 0.00, 0.00, 0.00, 0.00, 0.00, 0.00, 0
364724, -27968.33, -25490.11, 0.00, 0.00, 0.00, 0.00, 0.00, 0.00, 0
364725, -27976.76, -25527.90, 0.00, 0.00, 0.00, 0.00, 0.00, 0.00, 0
364726, -27779.35, -25062.65, 0.00, 0.00, 0.00, 0.00, 0.00, 0.00, 0
364727, -27745.87, -24964.44, 0.00, 0.00, 0.00, 0.00, 0.00, 0.00, 0
364728, -27924.17, -25393.73, 0.00, 0.00, 0.00, 0.00, 0.00, 0.00, 0
364729, -27986.60, -25562.77, 0.00, 0.00, 0.00, 0.00, 0.00, 0.00, 0
364730, -27804.72, -25137.17, 0.00, 0.00, 0.00, 0.00, 0.00, 0.00, 0
364731, -27729.69, -24948.39, 0.00, 0.00, 0.00, 0.00, 0.00, 0.00, 0
364732, -27892.58, -25340.98, 0.00, 0.00, 0.00, 0.00, 0.00, 0.00, 0
364733, -27997.44, -25605.08, 0.00, 0.00, 0.00, 0.00, 0.00, 0.00, 0
364734, -27834.76, -25229.87, 0.00, 0.00, 0.00, 0.00, 0.00, 0.00, 0
364735, -27712.45, -24927.16, 0.00, 0.00, 0.00, 0.00, 0.00, 0.00, 0
364736, -27842.96, -25232.84, 0.00, 0.00, 0.00, 0.00, 0.00, 0.00, 0
364737, -27983.89, -25596.75, 0.00, 0.00, 0.00, 0.00, 0.00, 0.00, 0
364738, -27866.79, -25314.51, 0.00, 0.00, 0.00, 0.00, 0.00, 0.00, 0
364739, -27711.96, -24920.65, 0.00, 0.00, 0.00, 0.00, 0.00, 0.00, 0
364740, -27809.28, -25138.04, 0.00, 0.00, 0.00, 0.00, 0.00, 0.00, 0
364741, -27965.47, -25565.39, 0.00, 0.00, 0.00, 0.00, 0.00, 0.00, 0
364742, -27880.49, -25386.39, 0.00, 0.00, 0.00, 0.00, 0.00, 0.00, 0
364743, -27704.47, -24935.52, 0.00, 0.00, 0.00, 0.00, 0.00, 0.00, 0
364744, -27770.32, -25046.20, 0.00, 0.00, 0.00, 0.00, 0.00, 0.00, 0
364745, -27953.20, -25516.21, 0.00, 0.00, 0.00, 0.00, 0.00, 0.00, 0
364746, -27921.73, -25483.40, 0.00, 0.00, 0.00, 0.00, 0.00, 0.00, 0
364747, -27728.86, -25017.01, 0.00, 0.00, 0.00, 0.00, 0.00, 0.00, 0
364748, -27744.59, -25012.16, 0.00, 0.00, 0.00, 0.00, 0.00, 0.00, 0
364749, -27931.05, -25471.24, 0.00, 0.00, 0.00, 0.00, 0.00, 0.00, 0
364750, -27952.33, -25564.40, 0.00, 0.00, 0.00, 0.00, 0.00, 0.00, 0
364751, -27762.16, -25098.71, 0.00, 0.00, 0.00, 0.00, 0.00, 0.00, 0
364752, -27728.32, -24970.23, 0.00, 0.00, 0.00, 0.00, 0.00, 0.00, 0
364753, -27899.67, -25385.01, 0.00, 0.00, 0.00, 0.00, 0.00, 0.00, 0
364754, -27967.80, -25569.32, 0.00, 0.00, 0.00, 0.00, 0.00, 0.00, 0
364755, -27790.46, -25143.05, 0.00, 0.00, 0.00, 0.00, 0.00, 0.00, 0
364756, -27699.09, -24909.14, 0.00, 0.00, 0.00, 0.00, 0.00, 0.00, 0
364757, -27852.93, -25287.20, 0.00, 0.00, 0.00, 0.00, 0.00, 0.00, 0
364758, -27960.94, -25583.61, 0.00, 0.00, 0.00, 0.00, 0.00, 0.00, 0
364759, -27812.07, -25227.90, 0.00, 0.00, 0.00, 0.00, 0.00, 0.00, 0
364760, -27678.25, -24890.86, 0.00, 0.00, 0.00, 0.00, 0.00, 0.00, 0
364761, -27806.44, -25181.16, 0.00, 0.00, 0.00, 0.00, 0.00, 0.00, 0
364762, -27957.40, -25566.46, 0.00, 0.00, 0.00, 0.00, 0.00, 0.00, 0
364763, -27838.09, -25320.10, 0.00, 0.00, 0.00, 0.00, 0.00, 0.00, 0
364764, -27668.24, -24926.31, 0.00, 0.00, 0.00, 0.00, 0.00, 0.00, 0
364765, -27765.00, -25126.45, 0.00, 0.00, 0.00, 0.00, 0.00, 0.00, 0
364766, -27943.68, -25561.30, 0.00, 0.00, 0.00, 0.00, 0.00, 0.00, 0
364767, -27875.78, -25406.69, 0.00, 0.00, 0.00, 0.00, 0.00, 0.00, 0
364768, -27692.22, -24953.75, 0.00, 0.00, 0.00, 0.00, 0.00, 0.00, 0
364769, -27743.92, -25042.65, 0.00, 0.00, 0.00, 0.00, 0.00, 0.00, 0
364770, -27924.59, -25503.63, 0.00, 0.00, 0.00, 0.00, 0.00, 0.00, 0
364771, -27914.51, -25489.30, 0.00, 0.00, 0.00, 0.00, 0.00, 0.00, 0
364772, -27728.12, -25022.75, 0.00, 0.00, 0.00, 0.00, 0.00, 0.00, 0
364773, -27720.90, -24989.52, 0.00, 0.00, 0.00, 0.00, 0.00, 0.00, 0
364774, -27907.16, -25441.47, 0.00, 0.00, 0.00, 0.00, 0.00, 0.00, 0
364775, -27941.04, -25535.91, 0.00, 0.00, 0.00, 0.00, 0.00, 0.00, 0
364776, -27752.06, -25084.65, 0.00, 0.00, 0.00, 0.00, 0.00, 0.00, 0
364777, -27701.68, -24946.40, 0.00, 0.00, 0.00, 0.00, 0.00, 0.00, 0
364778, -27873.61, -25360.09, 0.00, 0.00, 0.00, 0.00, 0.00, 0.00, 0
364779, -27957.76, -25578.78, 0.00, 0.00, 0.00, 0.00, 0.00, 0.00, 0
364780, -27787.60, -25180.29, 0.00, 0.00, 0.00, 0.00, 0.00, 0.00, 0
364781, -27699.94, -24932.19, 0.00, 0.00, 0.00, 0.00, 0.00, 0.00, 0
364782, -27846.00, -25276.74, 0.00, 0.00, 0.00, 0.00, 0.00, 0.00, 0
364783, -27964.74, -25599.03, 0.00, 0.00, 0.00, 0.00, 0.00, 0.00, 0
364784, -27817.44, -25271.28, 0.00, 0.00, 0.00, 0.00, 0.00, 0.00, 0
364785, -27674.65, -24906.71, 0.00, 0.00, 0.00, 0.00, 0.00, 0.00, 0
364786, -27803.29, -25181.01, 0.00, 0.00, 0.00, 0.00, 0.00, 0.00, 0
364787, -27953.94, -25592.90, 0.00, 0.00, 0.00, 0.00, 0.00, 0.00, 0
364788, -27837.35, -25363.75, 0.00, 0.00, 0.00, 0.00, 0.00, 0.00, 0
364789, -27671.50, -24956.19, 0.00, 0.00, 0.00, 0.00, 0.00, 0.00, 0
364790, -27753.36, -25127.72, 0.00, 0.00, 0.00, 0.00, 0.00, 0.00, 0
364791, -27930.45, -25568.14, 0.00, 0.00, 0.00, 0.00, 0.00, 0.00, 0
364792, -27877.36, -25444.49, 0.00, 0.00, 0.00, 0.00, 0.00, 0.00, 0
364793, -27698.44, -24981.94, 0.00, 0.00, 0.00, 0.00, 0.00, 0.00, 0
364794, -27732.10, -25037.39, 0.00, 0.00, 0.00, 0.00, 0.00, 0.00, 0
364795, -27915.54, -25492.43, 0.00, 0.00, 0.00, 0.00, 0.00, 0.00, 0
364796, -27911.52, -25501.46, 0.00, 0.00, 0.00, 0.00, 0.00, 0.00, 0
364797, -27718.58, -25034.89, 0.00, 0.00, 0.00, 0.00, 0.00, 0.00, 0
364798, -27706.04, -24975.99, 0.00, 0.00, 0.00, 0.00, 0.00, 0.00, 0
364799, -27888.52, -25420.28, 0.00, 0.00, 0.00, 0.00, 0.00, 0.00, 0
364800, -27936.97, -25548.49, 0.00, 0.00, 0.00, 0.00, 0.00, 0.00, 0
364801, -27747.88, -25097.74, 0.00, 0.00, 0.00, 0.00, 0.00, 0.00, 0
364802, -27685.41, -24923.83, 0.00, 0.00, 0.00, 0.00, 0.00, 0.00, 0
364803, -27854.27, -25332.26, 0.00, 0.00, 0.00, 0.00, 0.00, 0.00, 0
364804, -27943.79, -25585.48, 0.00, 0.00, 0.00, 0.00, 0.00, 0.00, 0
364805, -27783.20, -25197.61, 0.00, 0.00, 0.00, 0.00, 0.00, 0.00, 0
364806, -27679.15, -24927.47, 0.00, 0.00, 0.00, 0.00, 0.00, 0.00, 0
364807, -27828.84, -25258.48, 0.00, 0.00, 0.00, 0.00, 0.00, 0.00, 0
364808, -27951.57, -25582.15, 0.00, 0.00, 0.00, 0.00, 0.00, 0.00, 0
364809, -27815.22, -25283.42, 0.00, 0.00, 0.00, 0.00, 0.00, 0.00, 0
364810, -27671.41, -24919.65, 0.00, 0.00, 0.00, 0.00, 0.00, 0.00, 0
364811, -27792.81, -25165.58, 0.00, 0.00, 0.00, 0.00, 0.00, 0.00, 0
364812, -27959.42, -25569.48, 0.00, 0.00, 0.00, 0.00, 0.00, 0.00, 0
364813, -27858.48, -25374.13, 0.00, 0.00, 0.00, 0.00, 0.00, 0.00, 0
364814, -27679.01, -24944.61, 0.00, 0.00, 0.00, 0.00, 0.00, 0.00, 0
364815, -27754.90, -25090.14, 0.00, 0.00, 0.00, 0.00, 0.00, 0.00, 0
364816, -27934.61, -25546.34, 0.00, 0.00, 0.00, 0.00, 0.00, 0.00, 0
364817, -27887.96, -25455.71, 0.00, 0.00, 0.00, 0.00, 0.00, 0.00, 0
364818, -27702.10, -24997.61, 0.00, 0.00, 0.00, 0.00, 0.00, 0.00, 0
364819, -27731.50, -25029.51, 0.00, 0.00, 0.00, 0.00, 0.00, 0.00, 0
364820, -27914.09, -25484.50, 0.00, 0.00, 0.00, 0.00, 0.00, 0.00, 0
364821, -27912.52, -25513.22, 0.00, 0.00, 0.00, 0.00, 0.00, 0.00, 0
364822, -27716.59, -25035.45, 0.00, 0.00, 0.00, 0.00, 0.00, 0.00, 0
364823, -27696.31, -24950.51, 0.00, 0.00, 0.00, 0.00, 0.00, 0.00, 0
364824, -27879.20, -25392.16, 0.00, 0.00, 0.00, 0.00, 0.00, 0.00, 0
364825, -27926.67, -25549.85, 0.00, 0.00, 0.00, 0.00, 0.00, 0.00, 0
364826, -27735.32, -25117.57, 0.00, 0.00, 0.00, 0.00, 0.00, 0.00, 0
364827, -27660.78, -24938.91, 0.00, 0.00, 0.00, 0.00, 0.00, 0.00, 0
364828, -27829.46, -25346.14, 0.00, 0.00, 0.00, 0.00, 0.00, 0.00, 0
